LabVIEW Measurement	
Writer_Version	2
Reader_Version	2
Separator	Tab
Decimal_Separator	,
Multi_Headings	Yes
X_Columns	One
Time_Pref	Absolute
Operator	d.nicolai
Date	2023/11/09
Time	16:50:04,4285122999997786159
***End_of_Header***	
	
Channels	2		
Samples	1000	1000	
Date	2023/11/09	2023/11/09	
Time	16:50:16,2295125999998816567	16:50:16,2295125999998816567	
Y_Unit_Label	Volts	Volts	
X_Dimension	Time	Time	
X0	0,0000000000000000E+0	0,0000000000000000E+0	
Delta_X	0,001000	0,001000	
***End_of_Header***			
X_Value	powebox	triggerbox	Comment
0,000000	4,199066	1,036224
0,001000	4,435272	4,396057
0,002000	4,669495	4,876862
0,003000	4,823151	4,999847
0,004000	4,907227	4,999847
0,005000	4,874878	4,999847
0,006000	4,488831	4,999847
0,007000	4,280548	4,999847
0,008000	4,031372	4,999847
0,009000	3,716278	3,805542
0,010000	3,373718	2,709351
0,011000	3,155518	4,626007
0,012000	2,783966	3,698883
0,013000	2,554169	4,999847
0,014000	2,433167	4,999847
0,015000	2,433014	4,999847
0,016000	2,870026	4,999847
0,017000	3,145142	4,999847
0,018000	3,454132	4,917450
0,019000	3,815308	3,551178
0,020000	4,168396	2,374420
0,021000	4,412079	4,999847
0,022000	4,652863	4,999847
0,023000	4,819183	4,999847
0,024000	4,889374	4,999847
0,025000	4,872284	4,999847
0,026000	4,488373	4,999847
0,027000	4,273224	4,999847
0,028000	4,028015	4,999847
0,029000	3,707428	3,122864
0,030000	3,433075	3,821716
0,031000	3,150787	4,030914
0,032000	2,789612	3,696289
0,033000	2,551575	4,999847
0,034000	2,431030	4,999847
0,035000	2,443237	4,999847
0,036000	2,864380	4,999847
0,037000	3,125305	4,999847
0,038000	3,457947	4,642334
0,039000	3,822784	2,944794
0,040000	4,110260	4,288635
0,041000	4,434357	3,719635
0,042000	4,669952	4,793091
0,043000	4,830017	4,999847
0,044000	4,888306	4,999847
0,045000	4,871063	4,999847
0,046000	4,490204	4,999847
0,047000	4,281158	4,999847
0,048000	4,030304	4,999847
0,049000	3,711090	3,219147
0,050000	3,374481	2,488251
0,051000	3,154907	4,383087
0,052000	2,812653	4,996796
0,053000	2,562866	4,999847
0,054000	2,412262	4,999847
0,055000	2,437439	4,999847
0,056000	2,866974	4,999847
0,057000	3,130035	4,999847
0,058000	3,440247	4,999847
0,059000	3,828430	2,667084
0,060000	4,143524	3,509521
0,061000	4,420166	4,971008
0,062000	4,657593	4,999847
0,063000	4,806213	4,999847
0,064000	4,902954	4,999847
0,065000	4,879303	4,999847
0,066000	4,488831	4,999847
0,067000	4,278259	4,999847
0,068000	4,015350	4,999847
0,069000	3,729401	4,170380
0,070000	3,436737	4,071198
0,071000	3,143616	3,519745
0,072000	2,797699	4,018555
0,073000	2,565155	4,999847
0,074000	2,425232	4,999847
0,075000	2,447205	4,999847
0,076000	2,865753	4,999847
0,077000	3,126068	4,999847
0,078000	3,443298	4,999847
0,079000	3,811340	3,277283
0,080000	4,125214	3,357239
0,081000	4,436188	4,057922
0,082000	4,680786	4,169006
0,083000	4,815521	4,999847
0,084000	4,910583	4,999847
0,085000	4,874420	4,999847
0,086000	4,480438	4,999847
0,087000	4,291077	4,999847
0,088000	4,021149	4,999847
0,089000	3,735962	4,346008
0,090000	3,421936	4,023743
0,091000	3,143768	3,327332
0,092000	2,803650	4,022217
0,093000	2,563782	4,999847
0,094000	2,426758	4,999847
0,095000	2,446747	4,999847
0,096000	2,867432	4,999847
0,097000	3,123932	4,999847
0,098000	3,457031	4,521942
0,099000	3,827820	2,532196
0,100000	4,129791	3,581543
0,101000	4,422760	4,606171
0,102000	4,654083	4,999847
0,103000	4,807129	4,999847
0,104000	4,907227	4,999847
0,105000	4,871368	4,999847
0,106000	4,490356	4,999847
0,107000	4,298248	4,999847
0,108000	4,016876	4,902496
0,109000	3,727112	3,837891
0,110000	3,455963	4,483490
0,111000	3,134308	2,754669
0,112000	2,826385	4,999847
0,113000	2,588501	4,999847
0,114000	2,425079	4,999847
0,115000	2,441101	4,999847
0,116000	2,880554	4,999847
0,117000	3,131866	4,999847
0,118000	3,445435	4,999847
0,119000	3,800964	3,820953
0,120000	4,141388	2,967224
0,121000	4,439850	3,789215
0,122000	4,673920	4,382629
0,123000	4,815216	4,999847
0,124000	4,899902	4,999847
0,125000	4,874725	4,999847
0,126000	4,502563	4,999847
0,127000	4,298401	4,999847
0,128000	4,019165	4,984894
0,129000	3,734131	3,956299
0,130000	3,395844	3,289032
0,131000	3,165588	4,730835
0,132000	2,801666	3,922577
0,133000	2,556763	4,999847
0,134000	2,416687	4,999847
0,135000	2,442169	4,999847
0,136000	2,865753	4,999847
0,137000	3,122406	4,999847
0,138000	3,446503	4,999847
0,139000	3,823242	2,637482
0,140000	4,132385	3,578644
0,141000	4,434814	3,927612
0,142000	4,650726	4,999847
0,143000	4,825592	4,999847
0,144000	4,905396	4,999847
0,145000	4,869232	4,999847
0,146000	4,497986	4,999847
0,147000	4,294128	4,999847
0,148000	4,026947	4,999847
0,149000	3,727570	3,589630
0,150000	3,393555	3,051605
0,151000	3,160400	4,138641
0,152000	2,816467	4,437561
0,153000	2,566681	4,999847
0,154000	2,431335	4,999847
0,155000	2,442322	4,999847
0,156000	2,858276	4,999847
0,157000	3,114777	4,999847
0,158000	3,455505	4,379425
0,159000	3,802032	3,529358
0,160000	4,127502	3,295898
0,161000	4,425964	4,357147
0,162000	4,654083	4,999847
0,163000	4,816589	4,999847
0,164000	4,911346	4,999847
0,165000	4,871674	4,999847
0,166000	4,490814	4,999847
0,167000	4,282684	4,999847
0,168000	4,019318	4,781189
0,169000	3,746033	4,449158
0,170000	3,401642	3,219299
0,171000	3,142090	2,781830
0,172000	2,808685	4,115906
0,173000	2,563019	4,999847
0,174000	2,436218	4,999847
0,175000	2,445679	4,999847
0,176000	2,857513	4,999847
0,177000	3,107452	4,999847
0,178000	3,452148	4,582214
0,179000	3,800964	3,652649
0,180000	4,169922	2,886505
0,181000	4,427643	4,264679
0,182000	4,664459	4,823914
0,183000	4,818878	4,999847
0,184000	4,903107	4,999847
0,185000	4,871674	4,999847
0,186000	4,507904	4,999847
0,187000	4,295807	4,999847
0,188000	4,030151	4,999847
0,189000	3,736725	3,850861
0,190000	3,396912	2,958527
0,191000	3,162537	4,542389
0,192000	2,810822	3,912659
0,193000	2,559509	4,999847
0,194000	2,421265	4,999847
0,195000	2,462463	4,999847
0,196000	2,864380	4,999847
0,197000	3,117828	4,999847
0,198000	3,458862	4,090118
0,199000	3,798370	3,563385
0,200000	4,123840	3,209076
0,201000	4,422455	4,406281
0,202000	4,655457	4,999847
0,203000	4,824066	4,999847
0,204000	4,905548	4,999847
0,205000	4,871368	4,999847
0,206000	4,517822	4,999847
0,207000	4,293365	4,999847
0,208000	4,037170	4,999847
0,209000	3,745728	4,338531
0,210000	3,385315	2,097626
0,211000	3,153687	3,748016
0,212000	2,826843	4,586182
0,213000	2,559509	4,999847
0,214000	2,421265	4,999847
0,215000	2,439423	4,999847
0,216000	2,848053	4,999847
0,217000	3,108673	4,999847
0,218000	3,440857	4,985809
0,219000	3,787842	4,094696
0,220000	4,169312	2,436523
0,221000	4,427795	4,290466
0,222000	4,650421	4,999847
0,223000	4,805298	4,999847
0,224000	4,903259	4,999847
0,225000	4,875793	4,999847
0,226000	4,516296	4,999847
0,227000	4,292145	4,999847
0,228000	4,021759	4,549408
0,229000	3,753967	4,666138
0,230000	3,435669	3,874359
0,231000	3,149567	2,965851
0,232000	2,813721	3,881989
0,233000	2,560577	4,999847
0,234000	2,439575	4,999847
0,235000	2,441559	4,999847
0,236000	2,847137	4,999847
0,237000	3,116760	4,999847
0,238000	3,443298	4,787292
0,239000	3,801727	3,400574
0,240000	4,163666	2,586517
0,241000	4,427948	4,187927
0,242000	4,636841	4,999847
0,243000	4,834442	4,999847
0,244000	4,898987	4,999847
0,245000	4,866943	4,999847
0,246000	4,518890	4,999847
0,247000	4,302063	4,999847
0,248000	4,025269	4,566956
0,249000	3,747864	4,045105
0,250000	3,410492	3,114929
0,251000	3,183746	4,746552
0,252000	2,838440	4,999847
0,253000	2,557983	4,929504
0,254000	2,425537	4,999847
0,255000	2,440643	4,999847
0,256000	2,842255	4,999847
0,257000	3,120422	4,999847
0,258000	3,437958	4,999847
0,259000	3,788605	3,864594
0,260000	4,167938	2,405396
0,261000	4,422607	4,278870
0,262000	4,647369	4,999847
0,263000	4,805756	4,999847
0,264000	4,901428	4,999847
0,265000	4,880676	4,999847
0,266000	4,518585	4,999847
0,267000	4,288788	4,999847
0,268000	4,044495	4,999847
0,269000	3,766022	4,999847
0,270000	3,426819	2,762909
0,271000	3,171082	3,749542
0,272000	2,819977	3,879089
0,273000	2,575073	4,999847
0,274000	2,435455	4,999847
0,275000	2,442474	4,999847
0,276000	2,857208	4,999847
0,277000	3,125458	4,999847
0,278000	3,435974	4,999847
0,279000	3,787842	4,007416
0,280000	4,113007	3,565216
0,281000	4,419098	4,354858
0,282000	4,659119	4,996033
0,283000	4,822845	4,999847
0,284000	4,898224	4,999847
0,285000	4,881897	4,999847
0,286000	4,533234	4,999847
0,287000	4,289551	4,999847
0,288000	4,043579	4,999847
0,289000	3,761902	4,664307
0,290000	3,421478	3,534241
0,291000	3,169403	4,411316
0,292000	2,835541	4,670868
0,293000	2,561035	4,885864
0,294000	2,443085	4,999847
0,295000	2,447357	4,999847
0,296000	2,852020	4,999847
0,297000	3,116608	4,999847
0,298000	3,442078	4,678345
0,299000	3,790588	3,836060
0,300000	4,107361	3,693390
0,301000	4,431305	3,310242
0,302000	4,654083	4,940338
0,303000	4,818268	4,999847
0,304000	4,906006	4,999847
0,305000	4,886475	4,999847
0,306000	4,525757	4,999847
0,307000	4,295654	4,999847
0,308000	4,052429	4,999847
0,309000	3,765564	4,734802
0,310000	3,433533	3,742371
0,311000	3,169403	3,567505
0,312000	2,826538	4,089203
0,313000	2,585449	4,999847
0,314000	2,431946	4,999847
0,315000	2,438507	4,999847
0,316000	2,852783	4,999847
0,317000	3,123932	4,999847
0,318000	3,437042	4,949341
0,319000	3,783112	4,024658
0,320000	4,148102	2,456512
0,321000	4,406281	4,999847
0,322000	4,657135	4,894409
0,323000	4,814453	4,999847
0,324000	4,902496	4,999847
0,325000	4,889069	4,999847
0,326000	4,522552	4,999847
0,327000	4,285431	4,999847
0,328000	4,053650	4,999847
0,329000	3,757629	4,182739
0,330000	3,430634	3,819580
0,331000	3,172607	3,693237
0,332000	2,828369	4,054260
0,333000	2,572632	4,999847
0,334000	2,436981	4,999847
0,335000	2,437744	4,999847
0,336000	2,844086	4,999847
0,337000	3,119812	4,999847
0,338000	3,431702	4,999847
0,339000	3,794098	3,384247
0,340000	4,093781	4,164429
0,341000	4,418945	3,495483
0,342000	4,658661	4,792023
0,343000	4,817352	4,999847
0,344000	4,902954	4,999847
0,345000	4,888153	4,999847
0,346000	4,536743	4,999847
0,347000	4,296265	4,999847
0,348000	4,047699	4,999847
0,349000	3,749084	3,673401
0,350000	3,428192	3,322144
0,351000	3,175201	3,516541
0,352000	2,837830	4,366302
0,353000	2,590027	4,999847
0,354000	2,450104	4,999847
0,355000	2,438049	4,999847
0,356000	2,848663	4,999847
0,357000	3,116760	4,999847
0,358000	3,425598	4,999847
0,359000	3,791199	3,405609
0,360000	4,114532	3,857269
0,361000	4,418640	4,270935
0,362000	4,645691	4,999847
0,363000	4,826355	4,999847
0,364000	4,909515	4,999847
0,365000	4,888763	4,999847
0,366000	4,519348	4,999847
0,367000	4,301910	4,999847
0,368000	4,055023	4,999847
0,369000	3,744659	3,345184
0,370000	3,458710	4,342194
0,371000	3,180847	3,721466
0,372000	2,841034	4,509583
0,373000	2,591705	4,999847
0,374000	2,443542	4,999847
0,375000	2,441711	4,999847
0,376000	2,849579	4,999847
0,377000	3,117523	4,999847
0,378000	3,439789	4,656372
0,379000	3,795166	3,236694
0,380000	4,110413	3,364410
0,381000	4,411316	4,505920
0,382000	4,649811	4,999847
0,383000	4,793701	4,999847
0,384000	4,907227	4,999847
0,385000	4,890137	4,999847
0,386000	4,535065	4,999847
0,387000	4,304199	4,999847
0,388000	4,051056	4,999847
0,389000	3,757019	3,950500
0,390000	3,423615	3,102722
0,391000	3,190460	4,839325
0,392000	2,817383	2,961426
0,393000	2,592773	4,999847
0,394000	2,431488	4,999847
0,395000	2,447205	4,999847
0,396000	2,846985	4,999847
0,397000	3,107147	4,999847
0,398000	3,431396	4,999847
0,399000	3,782349	3,761292
0,400000	4,090271	4,332886
0,401000	4,409637	4,395142
0,402000	4,657898	4,587860
0,403000	4,805756	4,999847
0,404000	4,900513	4,999847
0,405000	4,891510	4,999847
0,406000	4,525909	4,999847
0,407000	4,305878	4,999847
0,408000	4,057312	4,999847
0,409000	3,770599	4,468079
0,410000	3,442688	3,945007
0,411000	3,191986	4,802856
0,412000	2,826385	3,357849
0,413000	2,605133	4,999847
0,414000	2,439270	4,999847
0,415000	2,436371	4,999847
0,416000	2,847748	4,999847
0,417000	3,112183	4,999847
0,418000	3,426361	4,999847
0,419000	3,797455	2,840576
0,420000	4,106598	3,516846
0,421000	4,413147	3,955841
0,422000	4,651337	4,967499
0,423000	4,803009	4,999847
0,424000	4,902039	4,999847
0,425000	4,897003	4,999847
0,426000	4,539337	4,999847
0,427000	4,310760	4,999847
0,428000	4,059753	4,999847
0,429000	3,773499	4,514923
0,430000	3,443298	3,775482
0,431000	3,204803	4,961700
0,432000	2,831268	3,480530
0,433000	2,581024	4,999847
0,434000	2,432404	4,999847
0,435000	2,441711	4,999847
0,436000	2,845764	4,999847
0,437000	3,102570	4,999847
0,438000	3,441315	4,333344
0,439000	3,791504	3,198853
0,440000	4,135590	3,687134
0,441000	4,400482	4,999847
0,442000	4,655304	4,660492
0,443000	4,806671	4,999847
0,444000	4,913940	4,999847
0,445000	4,889069	4,999847
0,446000	4,535675	4,999847
0,447000	4,308472	4,999847
0,448000	4,052124	4,999847
0,449000	3,771973	4,372864
0,450000	3,446045	3,915253
0,451000	3,203125	4,756165
0,452000	2,838745	3,703156
0,453000	2,593384	4,999847
0,454000	2,434540	4,999847
0,455000	2,451782	4,999847
0,456000	2,845917	4,999847
0,457000	3,094177	4,999847
0,458000	3,435516	4,659424
0,459000	3,789978	3,095093
0,460000	4,100494	3,699799
0,461000	4,402618	3,969116
0,462000	4,646606	4,999847
0,463000	4,807587	4,999847
0,464000	4,915314	4,999847
0,465000	4,890137	4,999847
0,466000	4,529724	4,999847
0,467000	4,320831	4,999847
0,468000	4,051056	4,999847
0,469000	3,780365	4,735565
0,470000	3,437042	3,380737
0,471000	3,199615	4,373169
0,472000	2,836914	3,622742
0,473000	2,612610	4,999847
0,474000	2,432709	4,999847
0,475000	2,438812	4,999847
0,476000	2,841644	4,999847
0,477000	3,101959	4,999847
0,478000	3,436127	4,562683
0,479000	3,782959	3,382416
0,480000	4,125519	3,302155
0,481000	4,412384	4,564514
0,482000	4,653168	4,799805
0,483000	4,805145	4,999847
0,484000	4,908905	4,999847
0,485000	4,891663	4,999847
0,486000	4,558258	4,999847
0,487000	4,320984	4,999847
0,488000	4,055176	4,999847
0,489000	3,780975	4,568176
0,490000	3,443909	3,605499
0,491000	3,188019	3,917847
0,492000	2,834320	3,285522
0,493000	2,593842	4,999847
0,494000	2,443085	4,999847
0,495000	2,450409	4,999847
0,496000	2,837830	4,999847
0,497000	3,101044	4,999847
0,498000	3,432312	4,583893
0,499000	3,776245	3,738708
0,500000	4,084778	4,357147
0,501000	4,419403	3,815155
0,502000	4,642944	4,999847
0,503000	4,818268	4,999847
0,504000	4,915009	4,999847
0,505000	4,893646	4,999847
0,506000	4,556427	4,999847
0,507000	4,324951	4,999847
0,508000	4,056854	4,999847
0,509000	3,771515	4,059753
0,510000	3,425446	2,523956
0,511000	3,191071	3,460083
0,512000	2,833862	3,307495
0,513000	2,588043	4,999847
0,514000	2,428131	4,999847
0,515000	2,450562	4,999847
0,516000	2,835236	4,999847
0,517000	3,105011	4,999847
0,518000	3,429260	4,761505
0,519000	3,770294	4,052429
0,520000	4,090881	3,991089
0,521000	4,427795	3,101501
0,522000	4,643707	4,999847
0,523000	4,807892	4,999847
0,524000	4,911957	4,999847
0,525000	4,890594	4,999847
0,526000	4,568024	4,999847
0,527000	4,317780	4,999847
0,528000	4,062347	4,999847
0,529000	3,775024	4,108429
0,530000	3,455963	3,482819
0,531000	3,197174	3,546600
0,532000	2,856140	4,215088
0,533000	2,597961	4,999847
0,534000	2,446442	4,999847
0,535000	2,444000	4,999847
0,536000	2,837830	4,999847
0,537000	3,101654	4,999847
0,538000	3,431396	4,555664
0,539000	3,780060	3,432617
0,540000	4,088287	4,209595
0,541000	4,418793	3,594971
0,542000	4,649963	4,731293
0,543000	4,805298	4,999847
0,544000	4,907227	4,999847
0,545000	4,893646	4,999847
0,546000	4,564514	4,999847
0,547000	4,315491	4,999847
0,548000	4,059143	4,999847
0,549000	3,783569	4,617004
0,550000	3,425140	2,248230
0,551000	3,207397	4,745178
0,552000	2,836609	3,192139
0,553000	2,595978	4,999847
0,554000	2,440643	4,999847
0,555000	2,447815	4,999847
0,556000	2,827301	4,999847
0,557000	3,104248	4,999847
0,558000	3,430481	4,441681
0,559000	3,771057	3,885956
0,560000	4,095459	3,718109
0,561000	4,383698	3,959198
0,562000	4,641266	4,999847
0,563000	4,815063	4,999847
0,564000	4,909210	4,999847
0,565000	4,897614	4,999847
0,566000	4,571686	4,999847
0,567000	4,324341	4,999847
0,568000	4,064941	4,999847
0,569000	3,798828	4,999847
0,570000	3,478088	3,246002
0,571000	3,200989	3,716583
0,572000	2,860565	4,184418
0,573000	2,610931	4,999847
0,574000	2,450867	4,999847
0,575000	2,445526	4,999847
0,576000	2,817841	4,999847
0,577000	3,106384	4,999847
0,578000	3,432159	4,431763
0,579000	3,766327	3,980408
0,580000	4,104156	3,295593
0,581000	4,415283	3,375397
0,582000	4,650726	4,633179
0,583000	4,805756	4,999847
0,584000	4,902954	4,999847
0,585000	4,899597	4,999847
0,586000	4,564056	4,999847
0,587000	4,319000	4,999847
0,588000	4,067688	4,999847
0,589000	3,795013	4,884644
0,590000	3,444519	3,059082
0,591000	3,217773	4,807434
0,592000	2,855988	3,832855
0,593000	2,594757	4,999847
0,594000	2,450867	4,999847
0,595000	2,440796	4,999847
0,596000	2,821503	4,999847
0,597000	3,112946	4,999847
0,598000	3,415375	4,999847
0,599000	3,776093	3,429108
0,600000	4,088898	3,761749
0,601000	4,399719	4,256592
0,602000	4,635925	4,999847
0,603000	4,812012	4,999847
0,604000	4,903259	4,999847
0,605000	4,897614	4,999847
0,606000	4,576569	4,999847
0,607000	4,324646	4,999847
0,608000	4,067841	4,999847
0,609000	3,772583	3,628387
0,610000	3,439484	2,636871
0,611000	3,205719	4,050446
0,612000	2,846985	3,123016
0,613000	2,610321	4,999847
0,614000	2,444611	4,999847
0,615000	2,441101	4,999847
0,616000	2,823486	4,999847
0,617000	3,102417	4,999847
0,618000	3,421631	4,800262
0,619000	3,761902	4,192810
0,620000	4,144897	2,104492
0,621000	4,389191	4,999847
0,622000	4,636688	4,999847
0,623000	4,812317	4,999847
0,624000	4,907074	4,999847
0,625000	4,903870	4,999847
0,626000	4,571838	4,999847
0,627000	4,324951	4,999847
0,628000	4,069061	4,999847
0,629000	3,779907	3,848877
0,630000	3,503265	4,561005
0,631000	3,206787	3,354950
0,632000	2,862854	3,842926
0,633000	2,604828	4,999847
0,634000	2,455292	4,999847
0,635000	2,437744	4,999847
0,636000	2,822266	4,999847
0,637000	3,102722	4,999847
0,638000	3,409576	4,999847
0,639000	3,775635	3,317871
0,640000	4,139557	2,666168
0,641000	4,389801	4,999847
0,642000	4,645996	4,625702
0,643000	4,812469	4,999847
0,644000	4,900665	4,999847
0,645000	4,902954	4,999847
0,646000	4,568024	4,999847
0,647000	4,319916	4,999847
0,648000	4,075165	4,999847
0,649000	3,783722	3,961182
0,650000	3,495483	3,797913
0,651000	3,221436	4,189301
0,652000	2,854614	3,351898
0,653000	2,617493	4,999847
0,654000	2,438660	4,999847
0,655000	2,436371	4,999847
0,656000	2,832794	4,999847
0,657000	3,094025	4,999847
0,658000	3,420715	4,754333
0,659000	3,774109	3,409119
0,660000	4,108124	3,486481
0,661000	4,406281	4,287872
0,662000	4,642792	4,818420
0,663000	4,813080	4,999847
0,664000	4,910126	4,999847
0,665000	4,900055	4,999847
0,666000	4,580688	4,999847
0,667000	4,336090	4,999847
0,668000	4,075928	4,999847
0,669000	3,780670	3,711395
0,670000	3,452759	2,844849
0,671000	3,232117	4,999847
0,672000	2,855225	3,152771
0,673000	2,610474	4,999847
0,674000	2,447968	4,999847
0,675000	2,434082	4,999847
0,676000	2,827606	4,999847
0,677000	3,104248	4,999847
0,678000	3,422852	4,622040
0,679000	3,771362	3,277740
0,680000	4,119873	2,606201
0,681000	4,391327	4,999847
0,682000	4,648285	4,533539
0,683000	4,791870	4,999847
0,684000	4,909363	4,999847
0,685000	4,909210	4,999847
0,686000	4,586639	4,999847
0,687000	4,333344	4,999847
0,688000	4,071808	4,999847
0,689000	3,801117	4,692688
0,690000	3,455048	2,867126
0,691000	3,212738	4,550323
0,692000	2,855988	3,192902
0,693000	2,601776	4,999847
0,694000	2,451324	4,999847
0,695000	2,437592	4,999847
0,696000	2,828369	4,999847
0,697000	3,095245	4,999847
0,698000	3,413696	4,999847
0,699000	3,778839	3,007507
0,700000	4,114685	3,854218
0,701000	4,400177	4,718018
0,702000	4,642487	4,642029
0,703000	4,815826	4,999847
0,704000	4,915466	4,999847
0,705000	4,906158	4,999847
0,706000	4,590759	4,999847
0,707000	4,330444	4,999847
0,708000	4,069977	4,936371
0,709000	3,791809	4,125824
0,710000	3,510437	4,999847
0,711000	3,213043	3,550262
0,712000	2,866821	3,573151
0,713000	2,615814	4,999847
0,714000	2,451477	4,999847
0,715000	2,445526	4,999847
0,716000	2,813873	4,999847
0,717000	3,091278	4,999847
0,718000	3,420868	4,622803
0,719000	3,774719	3,080597
0,720000	4,073181	4,449615
0,721000	4,397583	3,332977
0,722000	4,641724	4,755554
0,723000	4,802246	4,999847
0,724000	4,919891	4,999847
0,725000	4,895782	4,999847
0,726000	4,589691	4,999847
0,727000	4,341736	4,999847
0,728000	4,083710	4,999847
0,729000	3,787537	3,655090
0,730000	3,473206	3,571167
0,731000	3,218842	3,657532
0,732000	2,861023	3,247375
0,733000	2,608643	4,999847
0,734000	2,450714	4,999847
0,735000	2,436066	4,999847
0,736000	2,811584	4,999847
0,737000	3,097839	4,999847
0,738000	3,417969	4,658051
0,739000	3,772125	3,237915
0,740000	4,122620	3,127289
0,741000	4,391022	4,940796
0,742000	4,638824	4,806519
0,743000	4,807434	4,999847
0,744000	4,918518	4,999847
0,745000	4,902802	4,999847
0,746000	4,585876	4,999847
0,747000	4,332886	4,999847
0,748000	4,071808	4,726868
0,749000	3,805237	4,508972
0,750000	3,472595	3,524933
0,751000	3,214722	3,872833
0,752000	2,870941	3,494415
0,753000	2,627716	4,999847
0,754000	2,443695	4,999847
0,755000	2,445984	4,999847
0,756000	2,803497	4,999847
0,757000	3,081360	4,999847
0,758000	3,428192	3,941345
0,759000	3,769531	3,224182
0,760000	4,102325	3,460999
0,761000	4,412842	3,867187
0,762000	4,643097	4,437561
0,763000	4,796448	4,999847
0,764000	4,915009	4,999847
0,765000	4,897614	4,999847
0,766000	4,591522	4,999847
0,767000	4,350128	4,999847
0,768000	4,078827	4,993286
0,769000	3,791504	3,825073
0,770000	3,486176	4,095459
0,771000	3,223724	3,870239
0,772000	2,879791	3,927917
0,773000	2,636871	4,999847
0,774000	2,453461	4,999847
0,775000	2,442627	4,999847
0,776000	2,813416	4,999847
0,777000	3,095551	4,999847
0,778000	3,415833	4,544373
0,779000	3,755493	3,900299
0,780000	4,082489	3,785400
0,781000	4,405975	3,052979
0,782000	4,625397	4,999847
0,783000	4,796600	4,999847
0,784000	4,916534	4,999847
0,785000	4,903259	4,999847
0,786000	4,600983	4,999847
0,787000	4,337006	4,999847
0,788000	4,080658	4,999847
0,789000	3,803406	4,349060
0,790000	3,499756	4,628143
0,791000	3,234253	3,992615
0,792000	2,878876	3,820648
0,793000	2,652588	4,999847
0,794000	2,462311	4,999847
0,795000	2,443390	4,999847
0,796000	2,802887	4,999847
0,797000	3,084717	4,999847
0,798000	3,416138	4,505615
0,799000	3,747253	4,318542
0,800000	4,070892	4,367371
0,801000	4,411316	3,224640
0,802000	4,643555	4,303741
0,803000	4,809418	4,999847
0,804000	4,918671	4,999847
0,805000	4,893799	4,999847
0,806000	4,607239	4,999847
0,807000	4,337311	4,999847
0,808000	4,082031	4,918060
0,809000	3,814392	4,691010
0,810000	3,455811	2,362671
0,811000	3,226166	3,878937
0,812000	2,888031	3,933258
0,813000	2,624969	4,999847
0,814000	2,450104	4,999847
0,815000	2,450867	4,999847
0,816000	2,808685	4,999847
0,817000	3,080139	4,999847
0,818000	3,416595	4,477539
0,819000	3,752899	3,819885
0,820000	4,132996	2,631531
0,821000	4,402924	4,139862
0,822000	4,616394	4,999847
0,823000	4,805145	4,999847
0,824000	4,914856	4,999847
0,825000	4,897003	4,999847
0,826000	4,598694	4,999847
0,827000	4,343567	4,999847
0,828000	4,078064	4,674530
0,829000	3,806763	4,233704
0,830000	3,506927	4,542389
0,831000	3,231201	3,715363
0,832000	2,885437	3,682709
0,833000	2,619171	4,999847
0,834000	2,440948	4,999847
0,835000	2,440948	4,999847
0,836000	2,810059	4,999847
0,837000	3,086853	4,999847
0,838000	3,418274	4,270782
0,839000	3,742371	4,357147
0,840000	4,075928	4,018402
0,841000	4,408264	3,358459
0,842000	4,622040	4,999847
0,843000	4,809418	4,999847
0,844000	4,910736	4,999847
0,845000	4,904938	4,999847
0,846000	4,613190	4,999847
0,847000	4,338226	4,999847
0,848000	4,088287	4,999847
0,849000	3,827057	4,999847
0,850000	3,481903	2,799225
0,851000	3,222809	2,909698
0,852000	2,883148	3,475647
0,853000	2,627716	4,999847
0,854000	2,458496	4,999847
0,855000	2,451630	4,999847
0,856000	2,784424	4,999847
0,857000	3,096161	4,999847
0,858000	3,418121	4,266968
0,859000	3,750610	3,876343
0,860000	4,071503	4,207001
0,861000	4,394531	3,972931
0,862000	4,626312	4,999847
0,863000	4,809570	4,999847
0,864000	4,913788	4,999847
0,865000	4,906769	4,999847
0,866000	4,620209	4,999847
0,867000	4,343719	4,999847
0,868000	4,091644	4,999847
0,869000	3,819427	4,767761
0,870000	3,467560	2,570648
0,871000	3,243866	4,999847
0,872000	2,889252	3,697968
0,873000	2,621460	4,999847
0,874000	2,459259	4,999847
0,875000	2,447968	4,999847
0,876000	2,802429	4,999847
0,877000	3,089142	4,999847
0,878000	3,399811	4,999847
0,879000	3,748627	4,059143
0,880000	4,109497	3,484039
0,881000	4,401550	4,198608
0,882000	4,619904	4,999847
0,883000	4,817200	4,999847
0,884000	4,912872	4,999847
0,885000	4,907227	4,999847
0,886000	4,626770	4,999847
0,887000	4,338837	4,999847
0,888000	4,103851	4,999847
0,889000	3,827209	4,999847
0,890000	3,473816	2,686920
0,891000	3,244934	4,263000
0,892000	2,892456	3,923798
0,893000	2,627258	4,999847
0,894000	2,450256	4,999847
0,895000	2,438049	4,999847
0,896000	2,787323	4,999847
0,897000	3,094635	4,999847
0,898000	3,412018	4,472504
0,899000	3,741913	4,315033
0,900000	4,103699	2,971649
0,901000	4,389496	4,697266
0,902000	4,632568	4,779053
0,903000	4,811859	4,999847
0,904000	4,906769	4,999847
0,905000	4,914551	4,999847
0,906000	4,617157	4,999847
0,907000	4,341888	4,999847
0,908000	4,093628	4,999847
0,909000	3,820038	4,518433
0,910000	3,471985	2,491302
0,911000	3,257141	4,999847
0,912000	2,880554	3,020935
0,913000	2,636719	4,999847
0,914000	2,450409	4,999847
0,915000	2,438812	4,999847
0,916000	2,770691	4,999847
0,917000	3,088379	4,999847
0,918000	3,399048	4,999847
0,919000	3,759308	3,303528
0,920000	4,070740	4,080658
0,921000	4,386749	3,760376
0,922000	4,634857	4,614410
0,923000	4,802246	4,999847
0,924000	4,914703	4,999847
0,925000	4,913483	4,999847
0,926000	4,618378	4,999847
0,927000	4,340210	4,999847
0,928000	4,104767	4,999847
0,929000	3,805847	3,685455
0,930000	3,487854	3,222504
0,931000	3,252106	4,195404
0,932000	2,896729	3,504791
0,933000	2,627563	4,999847
0,934000	2,456818	4,999847
0,935000	2,437592	4,999847
0,936000	2,787170	4,999847
0,937000	3,086090	4,999847
0,938000	3,394318	4,999847
0,939000	3,763428	3,304291
0,940000	4,115753	3,318481
0,941000	4,383545	4,999847
0,942000	4,635315	4,407501
0,943000	4,790344	4,999847
0,944000	4,913483	4,999847
0,945000	4,915161	4,999847
0,946000	4,622955	4,999847
0,947000	4,357758	4,999847
0,948000	4,105835	4,999847
0,949000	3,829498	4,828949
0,950000	3,501587	3,802032
0,951000	3,257599	4,519348
0,952000	2,887268	3,085175
0,953000	2,643127	4,999847
0,954000	2,463379	4,999847
0,955000	2,440796	4,999847
0,956000	2,793121	4,999847
0,957000	3,088379	4,999847
0,958000	3,401337	4,725800
0,959000	3,746796	3,707123
0,960000	4,083252	3,415833
0,961000	4,384308	3,478241
0,962000	4,631805	4,588470
0,963000	4,804077	4,999847
0,964000	4,915466	4,999847
0,965000	4,914093	4,999847
0,966000	4,637299	4,999847
0,967000	4,347229	4,999847
0,968000	4,102631	4,999847
0,969000	3,821869	4,256134
0,970000	3,483887	2,866364
0,971000	3,249664	4,405212
0,972000	2,888031	2,833557
0,973000	2,633514	4,999847
0,974000	2,452545	4,999847
0,975000	2,444458	4,999847
0,976000	2,786407	4,999847
0,977000	3,085175	4,999847
0,978000	3,392792	4,999847
0,979000	3,744202	3,777161
0,980000	4,075623	3,696899
0,981000	4,371490	3,538666
0,982000	4,629974	4,729767
0,983000	4,804077	4,999847
0,984000	4,921722	4,999847
0,985000	4,920807	4,999847
0,986000	4,619598	4,999847
0,987000	4,357452	4,999847
0,988000	4,107971	4,999847
0,989000	3,825836	4,416809
0,990000	3,500519	3,391571
0,991000	3,223877	3,642120
0,992000	2,896118	2,997131
0,993000	2,646332	4,999847
0,994000	2,442932	4,999847
0,995000	2,443542	4,999847
0,996000	2,778473	4,999847
0,997000	3,079224	4,999847
0,998000	3,403778	4,521332
0,999000	3,749084	3,449860

