LabVIEW Measurement	
Writer_Version	2
Reader_Version	2
Separator	Tab
Decimal_Separator	,
Multi_Headings	Yes
X_Columns	One
Time_Pref	Absolute
Operator	d.nicolai
Date	2023/11/09
Time	16:50:04,4285122999997786159
***End_of_Header***	
	
Channels	2		
Samples	1000	1000	
Date	2023/11/09	2023/11/09	
Time	16:50:19,9715127999994974534	16:50:19,9715127999994974534	
Y_Unit_Label	Volts	Volts	
X_Dimension	Time	Time	
X0	0,0000000000000000E+0	0,0000000000000000E+0	
Delta_X	0,001000	0,001000	
***End_of_Header***			
X_Value	powebox	triggerbox	Comment
0,000000	4,289551	0,908966
0,001000	4,493713	4,999847
0,002000	4,750519	4,999847
0,003000	4,903412	4,999847
0,004000	4,981232	4,999847
0,005000	4,955597	4,999847
0,006000	4,577789	4,999847
0,007000	4,360962	4,999847
0,008000	4,121094	4,999847
0,009000	3,810272	3,971405
0,010000	3,494873	2,857513
0,011000	3,229065	3,647308
0,012000	2,895050	4,535217
0,013000	2,643585	4,999847
0,014000	2,521057	4,999847
0,015000	2,531586	4,999847
0,016000	2,964630	4,999847
0,017000	3,222809	4,999847
0,018000	3,545074	4,785614
0,019000	3,910980	3,211060
0,020000	4,213409	3,554840
0,021000	4,519653	3,939056
0,022000	4,754791	4,958496
0,023000	4,906464	4,999847
0,024000	4,995117	4,999847
0,025000	4,967346	4,999847
0,026000	4,573059	4,999847
0,027000	4,355164	4,999847
0,028000	4,111938	4,999847
0,029000	3,803253	3,423462
0,030000	3,468475	2,863312
0,031000	3,235168	3,865204
0,032000	2,892761	4,291229
0,033000	2,658234	4,999847
0,034000	2,521820	4,999847
0,035000	2,534790	4,999847
0,036000	2,955780	4,999847
0,037000	3,221130	4,999847
0,038000	3,531494	4,999847
0,039000	3,899994	3,628387
0,040000	4,261475	3,368530
0,041000	4,509888	4,972534
0,042000	4,766846	4,311066
0,043000	4,909973	4,999847
0,044000	4,978638	4,999847
0,045000	4,950714	4,999847
0,046000	4,570007	4,999847
0,047000	4,365692	4,999847
0,048000	4,114227	4,999847
0,049000	3,811188	3,816681
0,050000	3,530884	4,120636
0,051000	3,235168	3,513184
0,052000	2,897339	4,463654
0,053000	2,661133	4,999847
0,054000	2,512054	4,999847
0,055000	2,528839	4,999847
0,056000	2,962646	4,999847
0,057000	3,226318	4,999847
0,058000	3,535767	4,999847
0,059000	3,908997	2,925720
0,060000	4,228973	2,949982
0,061000	4,512329	4,691620
0,062000	4,748840	4,999847
0,063000	4,904938	4,999847
0,064000	4,988556	4,999847
0,065000	4,962158	4,999847
0,066000	4,580078	4,999847
0,067000	4,380951	4,999847
0,068000	4,122162	4,999847
0,069000	3,808441	3,449860
0,070000	3,470917	2,667389
0,071000	3,263092	4,999847
0,072000	2,888336	3,864441
0,073000	2,646484	4,999847
0,074000	2,508698	4,999847
0,075000	2,523956	4,999847
0,076000	2,956238	4,999847
0,077000	3,212891	4,999847
0,078000	3,541870	4,766235
0,079000	3,900909	3,366852
0,080000	4,245758	2,781982
0,081000	4,511261	4,595184
0,082000	4,741974	4,999847
0,083000	4,898987	4,999847
0,084000	4,992676	4,999847
0,085000	4,959869	4,999847
0,086000	4,589539	4,999847
0,087000	4,380341	4,999847
0,088000	4,107361	4,981079
0,089000	3,821716	4,058533
0,090000	3,519287	4,063721
0,091000	3,235626	3,424377
0,092000	2,885590	3,526611
0,093000	2,655334	4,999847
0,094000	2,520447	4,999847
0,095000	2,537842	4,999847
0,096000	2,951355	4,999847
0,097000	3,221283	4,999847
0,098000	3,548584	4,359436
0,099000	3,903656	3,164673
0,100000	4,248505	3,564911
0,101000	4,515228	4,566345
0,102000	4,754791	4,764557
0,103000	4,921265	4,999847
0,104000	4,998474	4,999847
0,105000	4,956512	4,999847
0,106000	4,586334	4,999847
0,107000	4,376984	4,999847
0,108000	4,113312	4,999847
0,109000	3,824921	4,127808
0,110000	3,486938	3,212280
0,111000	3,246307	3,880768
0,112000	2,902222	4,235382
0,113000	2,661743	4,999847
0,114000	2,503815	4,999847
0,115000	2,531433	4,999847
0,116000	2,948608	4,999847
0,117000	3,201904	4,999847
0,118000	3,538666	4,818726
0,119000	3,896179	3,478851
0,120000	4,235687	3,443604
0,121000	4,509125	4,670868
0,122000	4,748383	4,898529
0,123000	4,902039	4,999847
0,124000	4,998627	4,999847
0,125000	4,956055	4,999847
0,126000	4,584656	4,999847
0,127000	4,380341	4,999847
0,128000	4,109802	4,895325
0,129000	3,832245	4,362793
0,130000	3,532715	4,151001
0,131000	3,232269	2,920990
0,132000	2,909088	4,609222
0,133000	2,669678	4,999847
0,134000	2,511902	4,999847
0,135000	2,533264	4,999847
0,136000	2,948914	4,999847
0,137000	3,206177	4,999847
0,138000	3,538666	4,784393
0,139000	3,890533	3,760376
0,140000	4,236450	3,239136
0,141000	4,520569	4,069061
0,142000	4,744415	4,999847
0,143000	4,904785	4,999847
0,144000	4,975433	4,999847
0,145000	4,956360	4,999847
0,146000	4,586792	4,999847
0,147000	4,371796	4,999847
0,148000	4,105835	4,534760
0,149000	3,833771	4,267120
0,150000	3,501129	3,702850
0,151000	3,262329	4,941406
0,152000	2,918091	4,884338
0,153000	2,674713	4,999847
0,154000	2,515869	4,999847
0,155000	2,543488	4,999847
0,156000	2,948608	4,999847
0,157000	3,208618	4,999847
0,158000	3,536987	4,745331
0,159000	3,901215	3,029022
0,160000	4,190826	4,409332
0,161000	4,522247	3,733063
0,162000	4,738922	4,999847
0,163000	4,914093	4,999847
0,164000	4,998932	4,999847
0,165000	4,958191	4,999847
0,166000	4,603424	4,999847
0,167000	4,394073	4,999847
0,168000	4,116821	4,960175
0,169000	3,843079	4,721832
0,170000	3,528290	4,115143
0,171000	3,243561	3,403473
0,172000	2,898254	3,719788
0,173000	2,664337	4,999847
0,174000	2,503815	4,999847
0,175000	2,526855	4,999847
0,176000	2,951202	4,999847
0,177000	3,200226	4,999847
0,178000	3,539886	4,538422
0,179000	3,900604	3,089752
0,180000	4,234161	2,824249
0,181000	4,514771	4,237366
0,182000	4,727631	4,999847
0,183000	4,899750	4,999847
0,184000	4,996185	4,999847
0,185000	4,962616	4,999847
0,186000	4,592133	4,999847
0,187000	4,376678	4,999847
0,188000	4,121857	4,999847
0,189000	3,835602	4,288940
0,190000	3,496704	3,291779
0,191000	3,253326	3,772125
0,192000	2,917023	4,491119
0,193000	2,660828	4,999847
0,194000	2,526093	4,999847
0,195000	2,534790	4,999847
0,196000	2,938690	4,999847
0,197000	3,212891	4,999847
0,198000	3,544769	4,061432
0,199000	3,877106	4,169922
0,200000	4,221497	3,493195
0,201000	4,503632	4,723053
0,202000	4,741821	4,999847
0,203000	4,906464	4,999847
0,204000	4,986115	4,999847
0,205000	4,945526	4,999847
0,206000	4,603271	4,999847
0,207000	4,382324	4,999847
0,208000	4,129486	4,999847
0,209000	3,833618	4,120483
0,210000	3,512573	3,843689
0,211000	3,278503	4,999847
0,212000	2,924194	4,985657
0,213000	2,663116	4,999847
0,214000	2,524872	4,999847
0,215000	2,536926	4,999847
0,216000	2,944641	4,999847
0,217000	3,219299	4,999847
0,218000	3,541260	4,279327
0,219000	3,896942	3,110046
0,220000	4,234924	2,987671
0,221000	4,506226	4,505310
0,222000	4,731598	4,999847
0,223000	4,910736	4,999847
0,224000	4,982758	4,999847
0,225000	4,965973	4,999847
0,226000	4,600830	4,999847
0,227000	4,377289	4,999847
0,228000	4,130859	4,999847
0,229000	3,849487	4,848022
0,230000	3,492737	2,860718
0,231000	3,255768	3,887787
0,232000	2,928162	4,964294
0,233000	2,657471	4,999847
0,234000	2,527771	4,999847
0,235000	2,529602	4,999847
0,236000	2,936859	4,999847
0,237000	3,221893	4,999847
0,238000	3,529968	4,830170
0,239000	3,883057	3,721161
0,240000	4,238892	2,204132
0,241000	4,506073	4,449310
0,242000	4,738922	4,999847
0,243000	4,895477	4,999847
0,244000	4,985199	4,999847
0,245000	4,968567	4,999847
0,246000	4,608307	4,999847
0,247000	4,387207	4,999847
0,248000	4,120331	4,825439
0,249000	3,839111	4,054871
0,250000	3,551483	4,900055
0,251000	3,263855	3,724518
0,252000	2,922211	4,507904
0,253000	2,651062	4,696350
0,254000	2,523956	4,999847
0,255000	2,534943	4,999847
0,256000	2,929230	4,999847
0,257000	3,211517	4,999847
0,258000	3,526306	4,999847
0,259000	3,871155	4,273071
0,260000	4,185333	4,458771
0,261000	4,524384	3,205872
0,262000	4,731750	4,999847
0,263000	4,902496	4,999847
0,264000	4,987793	4,999847
0,265000	4,970093	4,999847
0,266000	4,606781	4,999847
0,267000	4,391937	4,999847
0,268000	4,133606	4,999847
0,269000	3,838043	3,976135
0,270000	3,519592	3,587952
0,271000	3,275757	4,353943
0,272000	2,927399	4,601746
0,273000	2,675476	4,999847
0,274000	2,524109	4,999847
0,275000	2,527924	4,999847
0,276000	2,941132	4,999847
0,277000	3,214874	4,999847
0,278000	3,522949	4,999847
0,279000	3,874512	3,999786
0,280000	4,256897	1,857605
0,281000	4,506989	4,400482
0,282000	4,729462	4,999847
0,283000	4,893951	4,999847
0,284000	4,992218	4,999847
0,285000	4,977264	4,999847
0,286000	4,605103	4,999847
0,287000	4,378967	4,999847
0,288000	4,141693	4,999847
0,289000	3,850250	4,425507
0,290000	3,542328	4,707794
0,291000	3,260803	3,567810
0,292000	2,919464	3,982697
0,293000	2,679138	4,999847
0,294000	2,530975	4,999847
0,295000	2,522736	4,999847
0,296000	2,945709	4,999847
0,297000	3,203888	4,999847
0,298000	3,516541	4,999847
0,299000	3,888702	3,070831
0,300000	4,226227	3,561707
0,301000	4,498596	4,818420
0,302000	4,745789	4,800110
0,303000	4,897614	4,999847
0,304000	4,988556	4,999847
0,305000	4,971619	4,999847
0,306000	4,608307	4,999847
0,307000	4,393158	4,999847
0,308000	4,131622	4,999847
0,309000	3,834076	3,546906
0,310000	3,536377	3,227997
0,311000	3,277893	4,126129
0,312000	2,909851	3,544159
0,313000	2,681885	4,999847
0,314000	2,525177	4,999847
0,315000	2,530365	4,999847
0,316000	2,941437	4,999847
0,317000	3,199158	4,999847
0,318000	3,523254	4,971771
0,319000	3,879089	3,463898
0,320000	4,200897	3,301544
0,321000	4,506989	4,045105
0,322000	4,737091	4,994965
0,323000	4,898376	4,999847
0,324000	4,997406	4,999847
0,325000	4,979248	4,999847
0,326000	4,614410	4,999847
0,327000	4,394073	4,999847
0,328000	4,134674	4,999847
0,329000	3,833466	3,303375
0,330000	3,540649	3,802185
0,331000	3,263397	3,255920
0,332000	2,913055	3,500977
0,333000	2,682190	4,999847
0,334000	2,528992	4,999847
0,335000	2,522583	4,999847
0,336000	2,943573	4,999847
0,337000	3,197021	4,999847
0,338000	3,520966	4,883881
0,339000	3,884888	3,010712
0,340000	4,223633	3,876190
0,341000	4,489594	4,999847
0,342000	4,740295	4,839478
0,343000	4,897003	4,999847
0,344000	4,988098	4,999847
0,345000	4,981537	4,999847
0,346000	4,614258	4,999847
0,347000	4,390869	4,999847
0,348000	4,145355	4,999847
0,349000	3,853302	4,411469
0,350000	3,508759	3,135681
0,351000	3,273468	4,385223
0,352000	2,928619	4,054260
0,353000	2,687225	4,999847
0,354000	2,534790	4,999847
0,355000	2,530212	4,999847
0,356000	2,937317	4,999847
0,357000	3,197784	4,999847
0,358000	3,517609	4,999847
0,359000	3,875275	3,609314
0,360000	4,169769	4,915466
0,361000	4,498901	4,282837
0,362000	4,745483	4,567413
0,363000	4,898682	4,999847
0,364000	4,989319	4,999847
0,365000	4,978485	4,999847
0,366000	4,614105	4,999847
0,367000	4,397888	4,999847
0,368000	4,137421	4,999847
0,369000	3,849640	4,064178
0,370000	3,557281	3,717194
0,371000	3,276520	3,929901
0,372000	2,905731	2,982330
0,373000	2,681885	4,999847
0,374000	2,520599	4,999847
0,375000	2,525940	4,999847
0,376000	2,936249	4,999847
0,377000	3,199005	4,999847
0,378000	3,512268	4,999847
0,379000	3,877869	3,288422
0,380000	4,232941	2,784882
0,381000	4,485321	4,999847
0,382000	4,733582	4,999847
0,383000	4,903564	4,999847
0,384000	4,999847	4,999847
0,385000	4,978180	4,999847
0,386000	4,629669	4,999847
0,387000	4,404449	4,999847
0,388000	4,137878	4,999847
0,389000	3,862762	4,588470
0,390000	3,533478	4,052124
0,391000	3,273621	3,599243
0,392000	2,927094	4,002228
0,393000	2,676849	4,999847
0,394000	2,520294	4,999847
0,395000	2,535095	4,999847
0,396000	2,927551	4,999847
0,397000	3,181458	4,999847
0,398000	3,518982	4,818573
0,399000	3,869781	3,679657
0,400000	4,205017	3,552551
0,401000	4,483185	4,999847
0,402000	4,743195	4,519501
0,403000	4,902649	4,999847
0,404000	4,991455	4,999847
0,405000	4,978638	4,999847
0,406000	4,626160	4,999847
0,407000	4,388428	4,999847
0,408000	4,132996	4,833527
0,409000	3,853149	4,069519
0,410000	3,536530	4,041443
0,411000	3,287354	4,028778
0,412000	2,929382	3,816071
0,413000	2,686005	4,999847
0,414000	2,510986	4,999847
0,415000	2,545319	4,999847
0,416000	2,940521	4,999847
0,417000	3,180084	4,999847
0,418000	3,523254	4,544373
0,419000	3,867493	3,617096
0,420000	4,221039	3,859100
0,421000	4,495697	4,750214
0,422000	4,746857	4,140930
0,423000	4,877930	4,999847
0,424000	4,999847	4,999847
0,425000	4,977722	4,999847
0,426000	4,624329	4,999847
0,427000	4,408569	4,999847
0,428000	4,142609	4,999847
0,429000	3,857117	4,079285
0,430000	3,531952	3,679047
0,431000	3,302155	4,999847
0,432000	2,948151	4,851685
0,433000	2,682495	4,999847
0,434000	2,527161	4,999847
0,435000	2,536774	4,999847
0,436000	2,934265	4,999847
0,437000	3,193054	4,999847
0,438000	3,518829	4,630127
0,439000	3,874359	3,272858
0,440000	4,239197	2,905426
0,441000	4,493103	4,665680
0,442000	4,721069	4,999847
0,443000	4,887390	4,999847
0,444000	4,998169	4,999847
0,445000	4,972382	4,999847
0,446000	4,628906	4,999847
0,447000	4,398804	4,999847
0,448000	4,141693	4,999847
0,449000	3,856812	4,008179
0,450000	3,524628	3,193512
0,451000	3,285522	4,032593
0,452000	2,937012	3,950806
0,453000	2,681274	4,999847
0,454000	2,523041	4,999847
0,455000	2,538605	4,999847
0,456000	2,921906	4,999847
0,457000	3,184662	4,999847
0,458000	3,523254	4,362793
0,459000	3,857117	3,995514
0,460000	4,191895	3,623810
0,461000	4,507141	3,700104
0,462000	4,729614	4,996948
0,463000	4,900665	4,999847
0,464000	4,999847	4,999847
0,465000	4,966431	4,999847
0,466000	4,642792	4,999847
0,467000	4,421539	4,999847
0,468000	4,146118	4,999847
0,469000	3,857422	3,965302
0,470000	3,548889	4,187317
0,471000	3,282318	3,367462
0,472000	2,952118	4,616089
0,473000	2,688904	4,999847
0,474000	2,521362	4,999847
0,475000	2,530670	4,999847
0,476000	2,909851	4,999847
0,477000	3,198395	4,999847
0,478000	3,520355	4,445648
0,479000	3,871155	3,294067
0,480000	4,216766	2,895966
0,481000	4,501038	4,288788
0,482000	4,719086	4,999847
0,483000	4,889069	4,999847
0,484000	4,995117	4,999847
0,485000	4,971161	4,999847
0,486000	4,633789	4,999847
0,487000	4,409637	4,999847
0,488000	4,141083	4,839478
0,489000	3,875275	4,725189
0,490000	3,518677	2,764435
0,491000	3,279266	3,363495
0,492000	2,949219	4,300690
0,493000	2,701263	4,999847
0,494000	2,527008	4,999847
0,495000	2,531128	4,999847
0,496000	2,928009	4,999847
0,497000	3,190002	4,999847
0,498000	3,519287	4,344788
0,499000	3,851624	4,258728
0,500000	4,222565	2,938385
0,501000	4,485168	4,999847
0,502000	4,733276	4,833221
0,503000	4,901581	4,999847
0,504000	4,999084	4,999847
0,505000	4,962311	4,999847
0,506000	4,652557	4,999847
0,507000	4,397278	4,999847
0,508000	4,145508	4,897461
0,509000	3,874969	4,731140
0,510000	3,552246	3,267059
0,511000	3,288269	3,516693
0,512000	2,944489	4,022064
0,513000	2,679291	4,999847
0,514000	2,538147	4,999847
0,515000	2,537842	4,999847
0,516000	2,916107	4,999847
0,517000	3,195190	4,999847
0,518000	3,508301	4,921722
0,519000	3,855591	4,054260
0,520000	4,214020	3,276367
0,521000	4,493866	4,557648
0,522000	4,725189	4,999847
0,523000	4,904022	4,999847
0,524000	4,995117	4,999847
0,525000	4,977417	4,999847
0,526000	4,652557	4,999847
0,527000	4,405060	4,999847
0,528000	4,154053	4,999847
0,529000	3,880463	4,908142
0,530000	3,524017	2,722931
0,531000	3,296509	4,032898
0,532000	2,951813	4,360504
0,533000	2,684021	4,999847
0,534000	2,527771	4,999847
0,535000	2,524567	4,999847
0,536000	2,925415	4,999847
0,537000	3,196869	4,999847
0,538000	3,510895	4,743195
0,539000	3,848419	4,226837
0,540000	4,179840	3,748322
0,541000	4,493713	3,764038
0,542000	4,731750	4,702911
0,543000	4,897614	4,999847
0,544000	4,987335	4,999847
0,545000	4,981232	4,999847
0,546000	4,657745	4,999847
0,547000	4,399719	4,999847
0,548000	4,153290	4,999847
0,549000	3,873444	4,407043
0,550000	3,558502	3,617554
0,551000	3,291779	3,618317
0,552000	2,946930	3,784180
0,553000	2,682648	4,999847
0,554000	2,543335	4,999847
0,555000	2,527924	4,999847
0,556000	2,920990	4,999847
0,557000	3,199158	4,999847
0,558000	3,503418	4,999847
0,559000	3,866119	3,271942
0,560000	4,229584	2,657166
0,561000	4,490662	4,603271
0,562000	4,723816	4,999847
0,563000	4,903412	4,999847
0,564000	4,989471	4,999847
0,565000	4,977264	4,999847
0,566000	4,663544	4,999847
0,567000	4,413300	4,999847
0,568000	4,160004	4,999847
0,569000	3,873749	4,417114
0,570000	3,550110	3,731537
0,571000	3,295441	3,755798
0,572000	2,942352	3,504333
0,573000	2,702942	4,999847
0,574000	2,533569	4,999847
0,575000	2,523804	4,999847
0,576000	2,909393	4,999847
0,577000	3,190613	4,999847
0,578000	3,509827	4,671631
0,579000	3,850555	4,001770
0,580000	4,191284	3,073883
0,581000	4,466095	4,572144
0,582000	4,727173	4,882507
0,583000	4,906921	4,999847
0,584000	4,991302	4,999847
0,585000	4,982758	4,999847
0,586000	4,662933	4,999847
0,587000	4,407196	4,999847
0,588000	4,158478	4,999847
0,589000	3,868561	3,984070
0,590000	3,520203	2,220917
0,591000	3,304596	4,379425
0,592000	2,942047	3,399506
0,593000	2,709961	4,999847
0,594000	2,528229	4,999847
0,595000	2,525635	4,999847
0,596000	2,906189	4,999847
0,597000	3,190308	4,999847
0,598000	3,497467	4,999847
0,599000	3,851166	3,748932
0,600000	4,232635	2,535553
0,601000	4,483490	4,946442
0,602000	4,733429	4,458160
0,603000	4,888611	4,999847
0,604000	4,985809	4,999847
0,605000	4,988251	4,999847
0,606000	4,665222	4,999847
0,607000	4,415894	4,999847
0,608000	4,161224	4,999847
0,609000	3,867798	3,721008
0,610000	3,580933	4,628143
0,611000	3,313904	4,278107
0,612000	2,941284	3,211823
0,613000	2,714539	4,999847
0,614000	2,530975	4,999847
0,615000	2,529755	4,999847
0,616000	2,912750	4,999847
0,617000	3,196564	4,999847
0,618000	3,513947	4,314728
0,619000	3,861694	3,288727
0,620000	4,180756	3,392029
0,621000	4,482880	4,157562
0,622000	4,729919	4,589996
0,623000	4,885864	4,999847
0,624000	4,990997	4,999847
0,625000	4,992981	4,999847
0,626000	4,654999	4,999847
0,627000	4,408417	4,999847
0,628000	4,162445	4,999847
0,629000	3,866882	3,614502
0,630000	3,532104	2,471008
0,631000	3,314209	4,870148
0,632000	2,953033	3,671265
0,633000	2,702637	4,999847
0,634000	2,541046	4,999847
0,635000	2,523499	4,999847
0,636000	2,913666	4,999847
0,637000	3,175659	4,999847
0,638000	3,497009	4,999847
0,639000	3,866577	2,884979
0,640000	4,181519	3,363342
0,641000	4,488831	4,242096
0,642000	4,733887	4,189606
0,643000	4,891052	4,999847
0,644000	4,996643	4,999847
0,645000	4,989471	4,999847
0,646000	4,681549	4,999847
0,647000	4,419556	4,999847
0,648000	4,169769	4,999847
0,649000	3,889618	4,712372
0,650000	3,549042	3,192444
0,651000	3,310394	4,769287
0,652000	2,942505	3,028717
0,653000	2,706757	4,999847
0,654000	2,530060	4,999847
0,655000	2,525635	4,999847
0,656000	2,917023	4,999847
0,657000	3,175507	4,999847
0,658000	3,501740	4,796906
0,659000	3,846741	3,870544
0,660000	4,213104	2,986298
0,661000	4,478912	4,999847
0,662000	4,736176	4,117737
0,663000	4,895325	4,999847
0,664000	4,996185	4,999847
0,665000	4,985046	4,999847
0,666000	4,658508	4,999847
0,667000	4,428406	4,999847
0,668000	4,159546	4,923248
0,669000	3,886566	4,508820
0,670000	3,558044	3,623199
0,671000	3,301392	4,249268
0,672000	2,938385	2,502747
0,673000	2,724762	4,999847
0,674000	2,524109	4,999847
0,675000	2,535248	4,999847
0,676000	2,913361	4,999847
0,677000	3,172607	4,999847
0,678000	3,496399	4,999847
0,679000	3,871002	2,552948
0,680000	4,196472	3,810272
0,681000	4,483643	4,459229
0,682000	4,725342	4,656219
0,683000	4,893036	4,999847
0,684000	4,999847	4,999847
0,685000	4,987183	4,999847
0,686000	4,676666	4,999847
0,687000	4,422607	4,999847
0,688000	4,167175	4,999847
0,689000	3,868408	3,392792
0,690000	3,558655	3,610840
0,691000	3,309021	4,009247
0,692000	2,953491	3,261871
0,693000	2,721405	4,999847
0,694000	2,523041	4,999847
0,695000	2,522125	4,999847
0,696000	2,902527	4,999847
0,697000	3,165741	4,999847
0,698000	3,499603	4,719543
0,699000	3,846741	3,594971
0,700000	4,207153	3,092041
0,701000	4,488068	4,405823
0,702000	4,718018	4,886322
0,703000	4,886932	4,999847
0,704000	4,995575	4,999847
0,705000	4,983826	4,999847
0,706000	4,669495	4,999847
0,707000	4,429779	4,999847
0,708000	4,168854	4,999847
0,709000	3,878174	3,766479
0,710000	3,581848	4,480286
0,711000	3,314209	3,986053
0,712000	2,965851	3,698425
0,713000	2,682648	4,584351
0,714000	2,536163	4,999847
0,715000	2,534180	4,999847
0,716000	2,905731	4,999847
0,717000	3,167114	4,999847
0,718000	3,504333	4,488831
0,719000	3,847046	3,528595
0,720000	4,150238	4,819794
0,721000	4,462128	4,066772
0,722000	4,730988	4,244690
0,723000	4,884186	4,999847
0,724000	4,996796	4,999847
0,725000	4,983521	4,999847
0,726000	4,689941	4,999847
0,727000	4,426880	4,999847
0,728000	4,165039	4,910126
0,729000	3,895111	4,559326
0,730000	3,574829	3,531647
0,731000	3,318024	3,820648
0,732000	2,962646	3,397064
0,733000	2,719269	4,999847
0,734000	2,529907	4,999847
0,735000	2,534027	4,999847
0,736000	2,885437	4,999847
0,737000	3,167114	4,999847
0,738000	3,497467	4,712372
0,739000	3,844757	3,570099
0,740000	4,206085	2,733917
0,741000	4,483185	4,421082
0,742000	4,712219	4,999847
0,743000	4,880676	4,999847
0,744000	4,999847	4,999847
0,745000	4,983215	4,999847
0,746000	4,684753	4,999847
0,747000	4,427338	4,999847
0,748000	4,171295	4,999847
0,749000	3,898926	4,725647
0,750000	3,561859	3,416748
0,751000	3,314056	4,877930
0,752000	2,960968	3,071289
0,753000	2,721863	4,999847
0,754000	2,528076	4,999847
0,755000	2,531891	4,999847
0,756000	2,895355	4,999847
0,757000	3,166504	4,999847
0,758000	3,504181	4,225922
0,759000	3,833313	4,150543
0,760000	4,167175	3,859711
0,761000	4,478607	3,396149
0,762000	4,713440	4,999847
0,763000	4,885254	4,999847
0,764000	4,999847	4,999847
0,765000	4,986725	4,999847
0,766000	4,692993	4,999847
0,767000	4,427338	4,999847
0,768000	4,165649	4,853363
0,769000	3,899689	4,688568
0,770000	3,607483	4,573975
0,771000	3,301392	2,708130
0,772000	2,962952	3,307037
0,773000	2,718658	4,999847
0,774000	2,536469	4,999847
0,775000	2,537537	4,999847
0,776000	2,877960	4,999847
0,777000	3,166199	4,999847
0,778000	3,505249	4,067993
0,779000	3,832245	4,145966
0,780000	4,155579	4,319153
0,781000	4,493561	3,170319
0,782000	4,702454	4,999847
0,783000	4,880829	4,999847
0,784000	4,999847	4,999847
0,785000	4,981995	4,999847
0,786000	4,692993	4,999847
0,787000	4,429016	4,999847
0,788000	4,174042	4,999847
0,789000	3,910828	4,999847
0,790000	3,588867	3,553467
0,791000	3,314514	3,374023
0,792000	2,990723	4,448242
0,793000	2,696838	4,896698
0,794000	2,537537	4,999847
0,795000	2,531281	4,999847
0,796000	2,875671	4,999847
0,797000	3,181763	4,999847
0,798000	3,495941	4,588928
0,799000	3,839569	3,730011
0,800000	4,206848	2,680817
0,801000	4,478760	4,604187
0,802000	4,713898	4,965820
0,803000	4,898987	4,999847
0,804000	4,996643	4,999847
0,805000	4,983521	4,999847
0,806000	4,700165	4,999847
0,807000	4,427795	4,999847
0,808000	4,172058	4,999847
0,809000	3,910370	4,934540
0,810000	3,556061	2,783051
0,811000	3,317566	4,543915
0,812000	2,955017	2,537079
0,813000	2,714691	4,999847
0,814000	2,544098	4,999847
0,815000	2,533875	4,999847
0,816000	2,887878	4,999847
0,817000	3,175812	4,999847
0,818000	3,491364	4,641266
0,819000	3,834381	3,893433
0,820000	4,197540	3,235168
0,821000	4,485474	3,958893
0,822000	4,708862	4,999847
0,823000	4,896393	4,999847
0,824000	4,994659	4,999847
0,825000	4,986420	4,999847
0,826000	4,709625	4,999847
0,827000	4,432373	4,999847
0,828000	4,176331	4,999847
0,829000	3,916626	4,999847
0,830000	3,569641	3,257904
0,831000	3,333893	4,371796
0,832000	2,987518	4,104156
0,833000	2,714386	4,999847
0,834000	2,545471	4,999847
0,835000	2,531281	4,999847
0,836000	2,870026	4,999847
0,837000	3,171692	4,999847
0,838000	3,495483	4,500122
0,839000	3,841705	3,424835
0,840000	4,190521	2,897491
0,841000	4,471741	4,765015
0,842000	4,714661	4,633026
0,843000	4,892273	4,999847
0,844000	4,999847	4,999847
0,845000	4,982758	4,999847
0,846000	4,701080	4,999847
0,847000	4,417267	4,999847
0,848000	4,184265	4,999847
0,849000	3,916321	4,999847
0,850000	3,585815	3,741150
0,851000	3,326416	3,754883
0,852000	2,973633	3,265839
0,853000	2,705841	4,878235
0,854000	2,544250	4,999847
0,855000	2,519531	4,999847
0,856000	2,882996	4,999847
0,857000	3,176117	4,999847
0,858000	3,481598	4,999847
0,859000	3,818970	4,588776
0,860000	4,177094	2,987823
0,861000	4,479675	4,020386
0,862000	4,708710	4,871063
0,863000	4,893341	4,999847
0,864000	4,991150	4,999847
0,865000	4,992218	4,999847
0,866000	4,701843	4,999847
0,867000	4,429321	4,999847
0,868000	4,183502	4,999847
0,869000	3,908844	4,537811
0,870000	3,560333	2,590485
0,871000	3,326111	4,532623
0,872000	2,978516	3,277435
0,873000	2,702026	4,730377
0,874000	2,543335	4,999847
0,875000	2,530975	4,999847
0,876000	2,860718	4,999847
0,877000	3,174438	4,999847
0,878000	3,483582	4,989777
0,879000	3,820038	4,389801
0,880000	4,168549	3,388367
0,881000	4,461365	4,363708
0,882000	4,706726	4,935150
0,883000	4,889832	4,999847
0,884000	4,996338	4,999847
0,885000	4,999847	4,999847
0,886000	4,711456	4,999847
0,887000	4,438477	4,999847
0,888000	4,177704	4,895935
0,889000	3,905945	4,430847
0,890000	3,581085	3,395538
0,891000	3,327332	4,394684
0,892000	2,977905	2,971344
0,893000	2,708435	4,815979
0,894000	2,542725	4,999847
0,895000	2,527924	4,999847
0,896000	2,876892	4,999847
0,897000	3,170776	4,999847
0,898000	3,477783	4,999847
0,899000	3,829498	3,775024
0,900000	4,161224	3,614349
0,901000	4,483948	3,540039
0,902000	4,712982	4,564667
0,903000	4,900513	4,999847
0,904000	4,997864	4,999847
0,905000	4,996033	4,999847
0,906000	4,720306	4,999847
0,907000	4,430084	4,999847
0,908000	4,185028	4,999847
0,909000	3,914948	4,710999
0,910000	3,588409	3,701782
0,911000	3,321533	4,017487
0,912000	2,986755	3,451691
0,913000	2,727051	4,999847
0,914000	2,545013	4,999847
0,915000	2,521362	4,999847
0,916000	2,855682	4,999847
0,917000	3,175049	4,999847
0,918000	3,475494	4,999847
0,919000	3,836670	3,435669
0,920000	4,159698	3,766022
0,921000	4,481812	3,612061
0,922000	4,709015	4,790955
0,923000	4,900055	4,999847
0,924000	4,997864	4,999847
0,925000	4,999847	4,999847
0,926000	4,718170	4,999847
0,927000	4,426880	4,999847
0,928000	4,192657	4,999847
0,929000	3,916168	4,646759
0,930000	3,571014	2,704010
0,931000	3,357544	4,999847
0,932000	2,998047	3,748474
0,933000	2,717590	4,999847
0,934000	2,545471	4,999847
0,935000	2,532349	4,999847
0,936000	2,865906	4,999847
0,937000	3,179626	4,999847
0,938000	3,471222	4,999847
0,939000	3,834534	3,344269
0,940000	4,163666	3,375549
0,941000	4,439087	4,696503
0,942000	4,718933	4,311981
0,943000	4,882202	4,999847
0,944000	4,998322	4,999847
0,945000	4,998169	4,999847
0,946000	4,713593	4,999847
0,947000	4,440460	4,999847
0,948000	4,191589	4,999847
0,949000	3,899384	3,687897
0,950000	3,567963	2,499237
0,951000	3,331299	4,116364
0,952000	3,001709	3,906403
0,953000	2,730560	4,999847
0,954000	2,537231	4,999847
0,955000	2,521667	4,999847
0,956000	2,863922	4,999847
0,957000	3,166351	4,999847
0,958000	3,470154	4,999847
0,959000	3,837280	3,212433
0,960000	4,169006	3,415833
0,961000	4,487305	3,515930
0,962000	4,725189	3,721771
0,963000	4,872589	4,999847
0,964000	4,999847	4,999847
0,965000	4,999847	4,999847
0,966000	4,711914	4,999847
0,967000	4,443512	4,999847
0,968000	4,198151	4,999847
0,969000	3,922272	4,783783
0,970000	3,614349	4,465027
0,971000	3,343811	3,935699
0,972000	3,011322	4,106445
0,973000	2,731781	4,999847
0,974000	2,539062	4,999847
0,975000	2,527161	4,999847
0,976000	2,857513	4,999847
0,977000	3,150482	4,999847
0,978000	3,469391	4,999847
0,979000	3,839417	2,923431
0,980000	4,151611	3,946228
0,981000	4,450989	3,618622
0,982000	4,713287	4,204712
0,983000	4,868011	4,999847
0,984000	4,999847	4,999847
0,985000	4,996338	4,999847
0,986000	4,723663	4,999847
0,987000	4,447937	4,999847
0,988000	4,199066	4,999847
0,989000	3,918304	4,361420
0,990000	3,634644	4,842224
0,991000	3,357391	4,299774
0,992000	2,988586	2,858582
0,993000	2,730408	4,999847
0,994000	2,543335	4,999847
0,995000	2,528534	4,999847
0,996000	2,858887	4,999847
0,997000	3,156891	4,999847
0,998000	3,476868	4,709778
0,999000	3,825684	3,529205

