LabVIEW Measurement	
Writer_Version	2
Reader_Version	2
Separator	Tab
Decimal_Separator	,
Multi_Headings	Yes
X_Columns	One
Time_Pref	Absolute
Operator	d.nicolai
Date	2023/11/09
Time	16:50:04,4285122999997786159
***End_of_Header***	
	
Channels	2		
Samples	1000	1000	
Date	2023/11/09	2023/11/09	
Time	16:50:04,4285122999997786159	16:50:04,4285122999997786159	
Y_Unit_Label	Volts	Volts	
X_Dimension	Time	Time	
X0	0,0000000000000000E+0	0,0000000000000000E+0	
Delta_X	0,001000	0,001000	
***End_of_Header***			
X_Value	powebox	triggerbox	Comment
0,000000	4,603729	0,979004
0,001000	4,792175	4,999847
0,002000	4,908447	4,999847
0,003000	4,897308	4,999847
0,004000	4,594116	4,999847
0,005000	4,325867	4,999847
0,006000	4,058685	4,369049
0,007000	3,803558	4,776459
0,008000	3,459778	3,325958
0,009000	3,214874	4,604950
0,010000	2,852325	2,594452
0,011000	2,614899	4,999847
0,012000	2,438202	4,999847
0,013000	2,436981	4,999847
0,014000	2,774353	4,999847
0,015000	3,072662	4,999847
0,016000	3,389282	4,621582
0,017000	3,732910	3,634186
0,018000	4,084625	3,245697
0,019000	4,371490	4,513855
0,020000	4,609528	4,999847
0,021000	4,794312	4,999847
0,022000	4,906616	4,999847
0,023000	4,887238	4,999847
0,024000	4,616547	4,999847
0,025000	4,340057	4,999847
0,026000	4,075775	4,999847
0,027000	3,801880	4,928436
0,028000	3,464661	3,433838
0,029000	3,222046	4,971466
0,030000	2,861633	3,128052
0,031000	2,607574	4,999847
0,032000	2,438812	4,999847
0,033000	2,429962	4,999847
0,034000	2,769775	4,999847
0,035000	3,061981	4,999847
0,036000	3,398743	3,987885
0,037000	3,734283	3,287354
0,038000	4,041290	4,500427
0,039000	4,387817	3,088989
0,040000	4,602356	4,999847
0,041000	4,786072	4,999847
0,042000	4,895935	4,999847
0,043000	4,892883	4,999847
0,044000	4,616394	4,999847
0,045000	4,330444	4,999847
0,046000	4,076385	4,999847
0,047000	3,800049	4,815521
0,048000	3,468933	3,563843
0,049000	3,230591	4,684448
0,050000	2,854919	2,724304
0,051000	2,621613	4,999847
0,052000	2,444305	4,999847
0,053000	2,428436	4,999847
0,054000	2,754974	4,999847
0,055000	3,066711	4,999847
0,056000	3,379211	4,770813
0,057000	3,717804	4,033356
0,058000	4,050903	3,607330
0,059000	4,359436	3,734131
0,060000	4,606934	4,815216
0,061000	4,784241	4,999847
0,062000	4,895630	4,999847
0,063000	4,887695	4,999847
0,064000	4,616089	4,999847
0,065000	4,334412	4,999847
0,066000	4,072418	4,999847
0,067000	3,794098	4,519043
0,068000	3,473053	3,778534
0,069000	3,218079	4,226990
0,070000	2,872467	3,626556
0,071000	2,616882	4,999847
0,072000	2,442017	4,999847
0,073000	2,426453	4,999847
0,074000	2,760468	4,999847
0,075000	3,061676	4,999847
0,076000	3,377686	4,627075
0,077000	3,721619	3,558044
0,078000	4,032745	4,299774
0,079000	4,360809	3,360138
0,080000	4,596405	4,999847
0,081000	4,776611	4,999847
0,082000	4,886017	4,999847
0,083000	4,886932	4,999847
0,084000	4,604340	4,999847
0,085000	4,313965	4,999847
0,086000	4,068146	4,999847
0,087000	3,795624	4,794922
0,088000	3,458405	3,233185
0,089000	3,202057	3,996429
0,090000	2,866821	3,615875
0,091000	2,577057	3,832703
0,092000	2,428894	4,999847
0,093000	2,411346	4,999847
0,094000	2,748260	4,999847
0,095000	3,068237	4,999847
0,096000	3,361206	4,906464
0,097000	3,711090	3,389893
0,098000	4,075317	2,069244
0,099000	4,349060	4,499359
0,100000	4,592896	4,520111
0,101000	4,766083	4,999847
0,102000	4,879761	4,999847
0,103000	4,883118	4,999847
0,104000	4,601135	4,999847
0,105000	4,320984	4,999847
0,106000	4,071808	4,999847
0,107000	3,780212	4,308014
0,108000	3,432007	2,314758
0,109000	3,193665	4,530640
0,110000	2,861481	3,573608
0,111000	2,601471	4,999847
0,112000	2,429657	4,999847
0,113000	2,399750	4,999847
0,114000	2,737122	4,999847
0,115000	3,050537	4,999847
0,116000	3,354187	4,896393
0,117000	3,692780	3,927917
0,118000	4,048004	3,084869
0,119000	4,323578	4,999847
0,120000	4,578705	4,880829
0,121000	4,760590	4,999847
0,122000	4,868927	4,999847
0,123000	4,873199	4,999847
0,124000	4,595032	4,999847
0,125000	4,301147	4,999847
0,126000	4,068451	4,999847
0,127000	3,786469	4,862366
0,128000	3,434753	2,531433
0,129000	3,210907	4,590607
0,130000	2,866821	3,978882
0,131000	2,584381	4,829712
0,132000	2,411041	4,999847
0,133000	2,402649	4,999847
0,134000	2,741547	4,999847
0,135000	3,041229	4,999847
0,136000	3,338318	4,999847
0,137000	3,702545	2,956390
0,138000	4,034424	2,913361
0,139000	4,329376	4,557800
0,140000	4,562988	4,999847
0,141000	4,762878	4,999847
0,142000	4,866486	4,999847
0,143000	4,869385	4,999847
0,144000	4,595490	4,999847
0,145000	4,308167	4,999847
0,146000	4,063263	4,999847
0,147000	3,773651	4,295197
0,148000	3,446045	3,210144
0,149000	3,198395	4,118958
0,150000	2,863617	3,728638
0,151000	2,623444	4,999847
0,152000	2,419281	4,999847
0,153000	2,392426	4,999847
0,154000	2,714996	4,999847
0,155000	3,029633	4,999847
0,156000	3,335724	4,999847
0,157000	3,699188	2,921906
0,158000	4,000549	4,378204
0,159000	4,323425	4,027100
0,160000	4,575195	4,292450
0,161000	4,746704	4,999847
0,162000	4,865417	4,999847
0,163000	4,861603	4,999847
0,164000	4,584656	4,999847
0,165000	4,306793	4,999847
0,166000	4,055023	4,999847
0,167000	3,771515	4,116364
0,168000	3,452759	3,538361
0,169000	3,199310	4,560852
0,170000	2,851410	3,217926
0,171000	2,602997	4,999847
0,172000	2,408447	4,999847
0,173000	2,395782	4,999847
0,174000	2,705688	4,999847
0,175000	3,024902	4,999847
0,176000	3,341980	4,552155
0,177000	3,681946	3,432007
0,178000	4,047699	2,840424
0,179000	4,317627	4,999847
0,180000	4,566650	4,489746
0,181000	4,741516	4,999847
0,182000	4,867859	4,999847
0,183000	4,862213	4,999847
0,184000	4,593048	4,999847
0,185000	4,322815	4,999847
0,186000	4,061432	4,999847
0,187000	3,772736	4,207001
0,188000	3,444519	3,144836
0,189000	3,187561	3,949280
0,190000	2,864685	3,694611
0,191000	2,604218	4,999847
0,192000	2,398529	4,999847
0,193000	2,392731	4,999847
0,194000	2,713165	4,999847
0,195000	3,023224	4,999847
0,196000	3,335876	4,560699
0,197000	3,686066	3,150024
0,198000	4,013519	3,664093
0,199000	4,345856	3,211670
0,200000	4,551086	4,999847
0,201000	4,733429	4,999847
0,202000	4,867249	4,999847
0,203000	4,862976	4,999847
0,204000	4,594574	4,999847
0,205000	4,317322	4,999847
0,206000	4,059601	4,999847
0,207000	3,774109	4,288483
0,208000	3,455811	3,680420
0,209000	3,178253	3,976593
0,210000	2,854156	3,202057
0,211000	2,613983	4,999847
0,212000	2,420959	4,999847
0,213000	2,396545	4,999847
0,214000	2,697601	4,999847
0,215000	3,020935	4,999847
0,216000	3,330383	4,689789
0,217000	3,667145	3,883667
0,218000	4,024506	3,789215
0,219000	4,329529	3,898468
0,220000	4,558868	4,529572
0,221000	4,740601	4,999847
0,222000	4,859314	4,999847
0,223000	4,854279	4,999847
0,224000	4,606628	4,999847
0,225000	4,312134	4,999847
0,226000	4,050751	4,999847
0,227000	3,771820	4,130707
0,228000	3,463135	4,031830
0,229000	3,216095	4,605865
0,230000	2,857666	3,427124
0,231000	2,590332	4,999847
0,232000	2,389679	4,999847
0,233000	2,391357	4,999847
0,234000	2,692261	4,999847
0,235000	2,994843	4,999847
0,236000	3,326721	4,459839
0,237000	3,665466	3,493347
0,238000	3,987122	4,018707
0,239000	4,301147	3,253937
0,240000	4,554138	4,582367
0,241000	4,724274	4,999847
0,242000	4,861298	4,999847
0,243000	4,846954	4,999847
0,244000	4,605713	4,999847
0,245000	4,299164	4,999847
0,246000	4,047852	4,998322
0,247000	3,780212	4,782410
0,248000	3,444824	3,344574
0,249000	3,191223	3,917542
0,250000	2,866516	4,146423
0,251000	2,580872	4,999847
0,252000	2,394867	4,999847
0,253000	2,393494	4,999847
0,254000	2,681274	4,999847
0,255000	3,007507	4,999847
0,256000	3,317261	4,661560
0,257000	3,636932	4,695587
0,258000	3,972778	4,418030
0,259000	4,314575	2,902069
0,260000	4,546356	4,677429
0,261000	4,720154	4,999847
0,262000	4,850464	4,999847
0,263000	4,827271	4,999847
0,264000	4,614258	4,999847
0,265000	4,295197	4,999847
0,266000	4,043732	4,890289
0,267000	3,790741	4,999847
0,268000	3,445892	3,404846
0,269000	3,180695	3,689575
0,270000	2,859955	3,746185
0,271000	2,591858	4,999847
0,272000	2,409515	4,999847
0,273000	2,391205	4,999847
0,274000	2,666473	4,999847
0,275000	2,999115	4,999847
0,276000	3,314514	4,495697
0,277000	3,638000	4,359283
0,278000	4,007721	3,110352
0,279000	4,294281	4,754791
0,280000	4,521484	4,999847
0,281000	4,714050	4,999847
0,282000	4,853058	4,999847
0,283000	4,828949	4,999847
0,284000	4,600677	4,999847
0,285000	4,308014	4,999847
0,286000	4,047089	4,999847
0,287000	3,764038	4,049530
0,288000	3,436432	3,063965
0,289000	3,155823	4,091187
0,290000	2,881012	4,740753
0,291000	2,582245	4,999847
0,292000	2,397003	4,999847
0,293000	2,385254	4,999847
0,294000	2,651825	4,999847
0,295000	2,993164	4,999847
0,296000	3,312836	4,280243
0,297000	3,632050	4,319916
0,298000	3,985901	3,197632
0,299000	4,305573	3,670044
0,300000	4,515228	4,999847
0,301000	4,718323	4,999847
0,302000	4,845734	4,999847
0,303000	4,845123	4,999847
0,304000	4,608765	4,999847
0,305000	4,282227	4,999847
0,306000	4,049225	4,999847
0,307000	3,781433	4,999847
0,308000	3,445129	3,523560
0,309000	3,201904	4,239044
0,310000	2,859497	3,844452
0,311000	2,602234	4,999847
0,312000	2,405090	4,999847
0,313000	2,379913	4,999847
0,314000	2,646027	4,999847
0,315000	2,990875	4,999847
0,316000	3,289795	4,999847
0,317000	3,636322	3,776550
0,318000	3,974915	3,344574
0,319000	4,280548	4,056244
0,320000	4,525604	4,770508
0,321000	4,718018	4,999847
0,322000	4,843903	4,999847
0,323000	4,836578	4,999847
0,324000	4,605255	4,999847
0,325000	4,291992	4,999847
0,326000	4,044037	4,999847
0,327000	3,771057	4,947968
0,328000	3,437347	3,448029
0,329000	3,184967	3,944244
0,330000	2,853241	3,803864
0,331000	2,570953	4,999847
0,332000	2,383118	4,999847
0,333000	2,364349	4,999847
0,334000	2,635803	4,999847
0,335000	2,987976	4,999847
0,336000	3,290100	4,492493
0,337000	3,626709	3,668976
0,338000	3,955688	3,746796
0,339000	4,263611	3,659821
0,340000	4,499512	4,999847
0,341000	4,709015	4,999847
0,342000	4,831848	4,999847
0,343000	4,824677	4,999847
0,344000	4,599762	4,999847
0,345000	4,289703	4,999847
0,346000	4,035797	4,999847
0,347000	3,763885	4,997559
0,348000	3,430634	3,436432
0,349000	3,177338	4,436646
0,350000	2,839813	3,454742
0,351000	2,565308	4,999847
0,352000	2,388306	4,999847
0,353000	2,348938	4,999847
0,354000	2,629700	4,999847
0,355000	2,973633	4,999847
0,356000	3,269653	4,749603
0,357000	3,607483	3,786011
0,358000	3,952179	3,170929
0,359000	4,260864	4,059448
0,360000	4,490051	4,999847
0,361000	4,683228	4,999847
0,362000	4,808350	4,999847
0,363000	4,817505	4,999847
0,364000	4,587402	4,999847
0,365000	4,263153	4,999847
0,366000	4,020691	4,999847
0,367000	3,749542	4,860840
0,368000	3,410034	3,026428
0,369000	3,156738	4,330750
0,370000	2,816010	2,752533
0,371000	2,554016	4,999847
0,372000	2,364960	4,999847
0,373000	2,335510	4,999847
0,374000	2,611694	4,999847
0,375000	2,939301	4,999847
0,376000	3,248444	4,999847
0,377000	3,591919	3,798981
0,378000	3,960724	2,710114
0,379000	4,250641	4,222870
0,380000	4,470520	4,999847
0,381000	4,677734	4,999847
0,382000	4,782867	4,999847
0,383000	4,797211	4,999847
0,384000	4,585876	4,999847
0,385000	4,250641	4,999847
0,386000	4,006500	4,999847
0,387000	3,736267	4,908600
0,388000	3,398895	3,188477
0,389000	3,160706	4,274139
0,390000	2,820282	3,808899
0,391000	2,530975	4,754333
0,392000	2,349701	4,999847
0,393000	2,311554	4,999847
0,394000	2,596283	4,999847
0,395000	2,930450	4,999847
0,396000	3,223114	4,999847
0,397000	3,574524	3,705444
0,398000	3,915558	3,431854
0,399000	4,230347	4,006042
0,400000	4,453583	4,999847
0,401000	4,647064	4,999847
0,402000	4,786377	4,999847
0,403000	4,785461	4,999847
0,404000	4,550629	4,999847
0,405000	4,247131	4,999847
0,406000	4,008026	4,999847
0,407000	3,723755	4,886017
0,408000	3,378754	2,753754
0,409000	3,142242	4,969940
0,410000	2,800598	3,343201
0,411000	2,519379	4,806976
0,412000	2,331696	4,999847
0,413000	2,295380	4,999847
0,414000	2,579651	4,999847
0,415000	2,915955	4,999847
0,416000	3,209534	4,999847
0,417000	3,562622	3,578644
0,418000	3,925629	3,102875
0,419000	4,205017	4,961090
0,420000	4,444580	4,948578
0,421000	4,636688	4,999847
0,422000	4,766083	4,999847
0,423000	4,772339	4,999847
0,424000	4,551239	4,999847
0,425000	4,235687	4,999847
0,426000	3,986969	4,999847
0,427000	3,705902	4,387207
0,428000	3,382568	3,383636
0,429000	3,131256	4,131622
0,430000	2,778015	2,635956
0,431000	2,527161	4,999847
0,432000	2,321930	4,999847
0,433000	2,296295	4,999847
0,434000	2,576904	4,999847
0,435000	2,898865	4,999847
0,436000	3,213501	4,510803
0,437000	3,540344	4,047241
0,438000	3,874054	4,109802
0,439000	4,194031	3,557892
0,440000	4,438934	4,656830
0,441000	4,616699	4,999847
0,442000	4,767761	4,999847
0,443000	4,763336	4,999847
0,444000	4,548340	4,999847
0,445000	4,241638	4,999847
0,446000	3,983307	4,999847
0,447000	3,685455	3,789978
0,448000	3,378296	3,454895
0,449000	3,123169	3,660431
0,450000	2,797394	3,889618
0,451000	2,520599	4,999847
0,452000	2,308807	4,999847
0,453000	2,277832	4,999847
0,454000	2,538757	4,999847
0,455000	2,885895	4,999847
0,456000	3,200836	4,624939
0,457000	3,533173	3,755035
0,458000	3,849792	4,784546
0,459000	4,185181	3,314972
0,460000	4,427948	4,749451
0,461000	4,596710	4,999847
0,462000	4,768524	4,999847
0,463000	4,757233	4,999847
0,464000	4,541168	4,999847
0,465000	4,221802	4,999847
0,466000	3,977509	4,999847
0,467000	3,696289	4,576263
0,468000	3,368378	3,244171
0,469000	3,114319	3,543396
0,470000	2,794189	3,898315
0,471000	2,499847	4,920959
0,472000	2,299042	4,999847
0,473000	2,277832	4,999847
0,474000	2,521667	4,999847
0,475000	2,881622	4,999847
0,476000	3,187256	4,737549
0,477000	3,526001	3,712769
0,478000	3,853912	4,098053
0,479000	4,174652	2,940979
0,480000	4,414215	4,883575
0,481000	4,603729	4,999847
0,482000	4,740448	4,999847
0,483000	4,736176	4,999847
0,484000	4,533539	4,999847
0,485000	4,206238	4,999847
0,486000	3,967438	4,999847
0,487000	3,673859	3,639832
0,488000	3,371582	3,742828
0,489000	3,097382	4,319611
0,490000	2,789307	3,885956
0,491000	2,512665	4,999847
0,492000	2,294464	4,999847
0,493000	2,274933	4,999847
0,494000	2,522125	4,999847
0,495000	2,869110	4,999847
0,496000	3,185272	4,377747
0,497000	3,515167	3,678741
0,498000	3,842621	4,245300
0,499000	4,183350	3,383331
0,500000	4,389038	4,999847
0,501000	4,585419	4,999847
0,502000	4,729919	4,999847
0,503000	4,732819	4,999847
0,504000	4,534454	4,999847
0,505000	4,213562	4,999847
0,506000	3,954010	4,999847
0,507000	3,690948	4,936523
0,508000	3,355103	3,165588
0,509000	3,106995	4,694672
0,510000	2,794952	4,439087
0,511000	2,505341	4,999847
0,512000	2,285156	4,999847
0,513000	2,272797	4,999847
0,514000	2,500916	4,999847
0,515000	2,859192	4,999847
0,516000	3,167877	4,712524
0,517000	3,500671	4,047699
0,518000	3,832703	4,203033
0,519000	4,157257	3,808746
0,520000	4,393921	4,999847
0,521000	4,584656	4,999847
0,522000	4,729004	4,999847
0,523000	4,720306	4,999847
0,524000	4,530640	4,999847
0,525000	4,194183	4,999847
0,526000	3,947296	4,968109
0,527000	3,669128	4,083405
0,528000	3,360291	3,640900
0,529000	3,101349	4,923096
0,530000	2,779083	3,819885
0,531000	2,499542	4,999847
0,532000	2,285156	4,999847
0,533000	2,269440	4,999847
0,534000	2,499237	4,999847
0,535000	2,858734	4,999847
0,536000	3,154144	4,999847
0,537000	3,485260	4,247131
0,538000	3,834991	3,590698
0,539000	4,149780	3,737335
0,540000	4,371490	4,999847
0,541000	4,578857	4,999847
0,542000	4,707642	4,999847
0,543000	4,707794	4,999847
0,544000	4,528656	4,999847
0,545000	4,194183	4,999847
0,546000	3,950958	4,999847
0,547000	3,677368	4,740448
0,548000	3,351898	3,462372
0,549000	3,103333	4,721069
0,550000	2,780457	4,258728
0,551000	2,491913	4,999847
0,552000	2,280426	4,999847
0,553000	2,258911	4,999847
0,554000	2,490234	4,999847
0,555000	2,857666	4,999847
0,556000	3,153381	4,521484
0,557000	3,488159	3,665771
0,558000	3,826752	3,621216
0,559000	4,130554	4,148407
0,560000	4,360809	4,999847
0,561000	4,560089	4,999847
0,562000	4,704132	4,999847
0,563000	4,703369	4,999847
0,564000	4,523926	4,999847
0,565000	4,175873	4,999847
0,566000	3,934631	4,920044
0,567000	3,678284	4,999847
0,568000	3,336945	2,875824
0,569000	3,091431	4,108429
0,570000	2,778473	4,256134
0,571000	2,477875	4,920044
0,572000	2,282104	4,999847
0,573000	2,252808	4,999847
0,574000	2,481384	4,999847
0,575000	2,848206	4,999847
0,576000	3,149414	4,402008
0,577000	3,480682	3,688354
0,578000	3,817596	3,712311
0,579000	4,121246	3,268433
0,580000	4,358673	4,999847
0,581000	4,568176	4,999847
0,582000	4,695892	4,999847
0,583000	4,695892	4,999847
0,584000	4,532623	4,999847
0,585000	4,176941	4,999847
0,586000	3,941498	4,999847
0,587000	3,677521	4,999847
0,588000	3,341522	3,157196
0,589000	3,075409	4,898987
0,590000	2,777710	4,348602
0,591000	2,465973	4,213104
0,592000	2,268066	4,999847
0,593000	2,250824	4,999847
0,594000	2,477264	4,999847
0,595000	2,834778	4,999847
0,596000	3,129578	4,999847
0,597000	3,473358	3,806152
0,598000	3,808746	3,715210
0,599000	4,126434	3,629456
0,600000	4,348907	4,999847
0,601000	4,554749	4,999847
0,602000	4,691772	4,999847
0,603000	4,696960	4,999847
0,604000	4,523468	4,999847
0,605000	4,169159	4,999847
0,606000	3,935089	4,999847
0,607000	3,662262	4,493561
0,608000	3,328857	2,654877
0,609000	3,059845	4,161835
0,610000	2,780762	4,566498
0,611000	2,487640	4,999847
0,612000	2,278900	4,999847
0,613000	2,242737	4,999847
0,614000	2,471008	4,999847
0,615000	2,824402	4,999847
0,616000	3,128815	4,971313
0,617000	3,465576	3,817291
0,618000	3,816528	3,163757
0,619000	4,101715	4,214478
0,620000	4,360504	4,972534
0,621000	4,557648	4,999847
0,622000	4,679260	4,999847
0,623000	4,701233	4,999847
0,624000	4,514923	4,999847
0,625000	4,177551	4,999847
0,626000	3,955383	4,999847
0,627000	3,670197	4,548798
0,628000	3,348083	3,165588
0,629000	3,067474	4,691010
0,630000	2,787018	4,258728
0,631000	2,495117	4,999847
0,632000	2,302551	4,999847
0,633000	2,250671	4,999847
0,634000	2,476044	4,999847
0,635000	2,852020	4,999847
0,636000	3,133392	4,999847
0,637000	3,476410	3,705139
0,638000	3,806458	3,975067
0,639000	4,106750	4,999847
0,640000	4,358063	4,999847
0,641000	4,564667	4,999847
0,642000	4,689178	4,999847
0,643000	4,710846	4,999847
0,644000	4,531097	4,999847
0,645000	4,176636	4,999847
0,646000	3,948059	4,999847
0,647000	3,659973	3,713989
0,648000	3,363342	3,724823
0,649000	3,140106	4,999847
0,650000	2,783051	3,859558
0,651000	2,506104	4,999847
0,652000	2,295685	4,999847
0,653000	2,250061	4,999847
0,654000	2,460480	4,999847
0,655000	2,828064	4,999847
0,656000	3,123932	4,999847
0,657000	3,469696	3,733215
0,658000	3,812714	3,466492
0,659000	4,088898	4,077759
0,660000	4,347534	4,999847
0,661000	4,554443	4,999847
0,662000	4,698029	4,999847
0,663000	4,715576	4,999847
0,664000	4,539337	4,999847
0,665000	4,190979	4,999847
0,666000	3,965149	4,999847
0,667000	3,674316	4,137115
0,668000	3,358307	3,221741
0,669000	3,109283	3,970490
0,670000	2,794189	4,086151
0,671000	2,507019	4,999847
0,672000	2,305603	4,999847
0,673000	2,246704	4,999847
0,674000	2,454224	4,999847
0,675000	2,832336	4,999847
0,676000	3,128662	4,999847
0,677000	3,476562	3,490906
0,678000	3,806305	3,926849
0,679000	4,115295	4,582520
0,680000	4,361115	4,999847
0,681000	4,550323	4,999847
0,682000	4,694061	4,999847
0,683000	4,716492	4,999847
0,684000	4,527130	4,999847
0,685000	4,205170	4,999847
0,686000	3,964386	4,999847
0,687000	3,687134	4,864197
0,688000	3,367615	3,663635
0,689000	3,109589	4,985352
0,690000	2,802887	4,556580
0,691000	2,513123	4,999847
0,692000	2,284393	4,999847
0,693000	2,248688	4,999847
0,694000	2,466583	4,999847
0,695000	2,835388	4,999847
0,696000	3,132019	4,566498
0,697000	3,465118	3,658295
0,698000	3,798370	3,904572
0,699000	4,121399	3,909302
0,700000	4,355316	4,901886
0,701000	4,547882	4,999847
0,702000	4,696960	4,999847
0,703000	4,703979	4,999847
0,704000	4,530182	4,999847
0,705000	4,182434	4,999847
0,706000	3,941193	4,999847
0,707000	3,668976	4,259491
0,708000	3,348541	3,144836
0,709000	3,110809	4,584198
0,710000	2,781219	4,006653
0,711000	2,490387	4,999847
0,712000	2,266998	4,999847
0,713000	2,231445	4,999847
0,714000	2,448425	4,999847
0,715000	2,814789	4,999847
0,716000	3,108978	4,858704
0,717000	3,448944	3,590393
0,718000	3,783264	3,789215
0,719000	4,058838	4,457550
0,720000	4,329681	4,999847
0,721000	4,523773	4,999847
0,722000	4,666290	4,999847
0,723000	4,697266	4,999847
0,724000	4,518127	4,999847
0,725000	4,175720	4,999847
0,726000	3,945618	4,999847
0,727000	3,642120	3,772125
0,728000	3,334961	3,236389
0,729000	3,059692	4,582214
0,730000	2,764435	3,897247
0,731000	2,486877	4,999847
0,732000	2,265472	4,999847
0,733000	2,214661	4,999847
0,734000	2,415161	4,999847
0,735000	2,787018	4,999847
0,736000	3,085327	4,850159
0,737000	3,434906	3,009186
0,738000	3,782806	2,946930
0,739000	4,093018	3,533630
0,740000	4,309845	4,953613
0,741000	4,499207	4,999847
0,742000	4,646301	4,999847
0,743000	4,657440	4,999847
0,744000	4,499969	4,999847
0,745000	4,144592	4,999847
0,746000	3,907776	4,999847
0,747000	3,619537	3,974609
0,748000	3,310547	3,520050
0,749000	3,058624	4,359894
0,750000	2,736969	4,189606
0,751000	2,433929	4,999847
0,752000	2,218933	4,999847
0,753000	2,175598	4,999847
0,754000	2,382050	4,999847
0,755000	2,741699	4,999847
0,756000	3,042450	4,938660
0,757000	3,382568	3,303375
0,758000	3,710632	3,899536
0,759000	4,016876	3,929443
0,760000	4,254456	4,999847
0,761000	4,452057	4,999847
0,762000	4,605560	4,999847
0,763000	4,609680	4,999847
0,764000	4,450378	4,999847
0,765000	4,105988	4,999847
0,766000	3,865509	4,999847
0,767000	3,563995	3,737793
0,768000	3,260651	3,553009
0,769000	3,000946	4,383698
0,770000	2,693481	4,860992
0,771000	2,404785	4,999847
0,772000	2,164154	4,999847
0,773000	2,119293	4,999847
0,774000	2,311707	4,999847
0,775000	2,681122	4,999847
0,776000	2,981720	4,982300
0,777000	3,316498	3,550568
0,778000	3,655243	3,647614
0,779000	3,964386	4,248657
0,780000	4,204559	4,894257
0,781000	4,392395	4,999847
0,782000	4,538574	4,999847
0,783000	4,555664	4,999847
0,784000	4,393005	4,999847
0,785000	4,055176	4,999847
0,786000	3,799438	4,999847
0,787000	3,515167	3,868408
0,788000	3,207703	3,466339
0,789000	2,945251	4,349213
0,790000	2,623138	3,533936
0,791000	2,334595	4,999847
0,792000	2,114410	4,999847
0,793000	2,073059	4,999847
0,794000	2,264252	4,999847
0,795000	2,649994	4,999847
0,796000	2,932434	4,999847
0,797000	3,272858	3,444366
0,798000	3,619995	3,297882
0,799000	3,952942	2,931824
0,800000	4,161987	4,970551
0,801000	4,356995	4,999847
0,802000	4,503174	4,999847
0,803000	4,512482	4,999847
0,804000	4,364471	4,999847
0,805000	4,015503	4,999847
0,806000	3,772430	4,999847
0,807000	3,485260	3,855133
0,808000	3,182068	3,587341
0,809000	2,921448	4,041595
0,810000	2,608490	4,333191
0,811000	2,314758	4,999847
0,812000	2,070465	4,999847
0,813000	2,053680	4,999847
0,814000	2,234192	4,999847
0,815000	2,613068	4,999847
0,816000	2,901917	4,999847
0,817000	3,232880	4,281006
0,818000	3,580780	3,891907
0,819000	3,870850	4,211884
0,820000	4,127502	4,999847
0,821000	4,326324	4,999847
0,822000	4,493866	4,999847
0,823000	4,500275	4,999847
0,824000	4,347229	4,999847
0,825000	3,996429	4,999847
0,826000	3,755341	4,999847
0,827000	3,473816	4,199219
0,828000	3,165436	3,514404
0,829000	2,902679	3,764801
0,830000	2,593689	4,286194
0,831000	2,311707	4,999847
0,832000	2,077179	4,999847
0,833000	2,028961	4,999847
0,834000	2,198029	4,999847
0,835000	2,594757	4,999847
0,836000	2,891388	4,757538
0,837000	3,228302	3,413849
0,838000	3,563385	3,880768
0,839000	3,886108	3,823547
0,840000	4,126129	4,828033
0,841000	4,315948	4,999847
0,842000	4,475708	4,999847
0,843000	4,478607	4,999847
0,844000	4,331665	4,999847
0,845000	3,982849	4,999847
0,846000	3,738403	4,999847
0,847000	3,466492	4,393921
0,848000	3,156586	3,699799
0,849000	2,873535	4,999847
0,850000	2,587585	4,511261
0,851000	2,294922	4,999847
0,852000	2,060699	4,999847
0,853000	2,018585	4,999847
0,854000	2,194061	4,999847
0,855000	2,591858	4,999847
0,856000	2,887421	4,416962
0,857000	3,211975	3,793030
0,858000	3,575592	2,908325
0,859000	3,902130	2,988586
0,860000	4,097290	4,999847
0,861000	4,318542	4,999847
0,862000	4,461670	4,999847
0,863000	4,469910	4,999847
0,864000	4,331970	4,999847
0,865000	3,972473	4,999847
0,866000	3,728180	4,876251
0,867000	3,466644	4,429016
0,868000	3,146973	3,312836
0,869000	2,899323	4,380798
0,870000	2,583313	4,439850
0,871000	2,283783	4,999847
0,872000	2,048035	4,999847
0,873000	2,016449	4,999847
0,874000	2,178345	4,999847
0,875000	2,573547	4,999847
0,876000	2,883759	4,288940
0,877000	3,193512	4,481049
0,878000	3,555603	3,617554
0,879000	3,898468	2,935028
0,880000	4,103088	4,999847
0,881000	4,305573	4,999847
0,882000	4,454498	4,999847
0,883000	4,475555	4,999847
0,884000	4,340363	4,999847
0,885000	3,977509	4,999847
0,886000	3,733063	4,999847
0,887000	3,463135	4,189453
0,888000	3,157654	3,598480
0,889000	2,851410	3,660736
0,890000	2,582245	4,105225
0,891000	2,276306	4,976807
0,892000	2,047272	4,999847
0,893000	2,025452	4,999847
0,894000	2,181091	4,999847
0,895000	2,566833	4,999847
0,896000	2,868958	4,999847
0,897000	3,195038	4,453583
0,898000	3,555908	3,512268
0,899000	3,880157	3,421173
0,900000	4,099426	4,999847
0,901000	4,317474	4,999847
0,902000	4,452820	4,999847
0,903000	4,474945	4,999847
0,904000	4,344330	4,999847
0,905000	3,965302	4,999847
0,906000	3,737335	4,999847
0,907000	3,476105	4,574127
0,908000	3,156281	3,308563
0,909000	2,907410	4,913483
0,910000	2,593231	4,466553
0,911000	2,293091	4,999847
0,912000	2,050934	4,999847
0,913000	2,032471	4,999847
0,914000	2,176819	4,999847
0,915000	2,581482	4,999847
0,916000	2,867126	4,999847
0,917000	3,206177	3,899078
0,918000	3,565826	3,072968
0,919000	3,875580	4,026031
0,920000	4,111633	4,999847
0,921000	4,319000	4,999847
0,922000	4,474487	4,999847
0,923000	4,482727	4,999847
0,924000	4,361267	4,999847
0,925000	3,988342	4,999847
0,926000	3,759308	4,999847
0,927000	3,485565	4,730835
0,928000	3,164825	3,404999
0,929000	2,877045	3,993073
0,930000	2,603912	4,659882
0,931000	2,315674	4,999847
0,932000	2,066956	4,999847
0,933000	2,019501	4,999847
0,934000	2,170715	4,999847
0,935000	2,590790	4,999847
0,936000	2,865143	4,999847
0,937000	3,204651	4,033051
0,938000	3,565063	3,218689
0,939000	3,831635	4,326630
0,940000	4,112244	4,999847
0,941000	4,321594	4,999847
0,942000	4,462433	4,999847
0,943000	4,493866	4,999847
0,944000	4,373474	4,999847
0,945000	3,969421	4,999847
0,946000	3,748779	4,999847
0,947000	3,490448	4,775696
0,948000	3,165283	3,220367
0,949000	2,923889	4,999847
0,950000	2,597351	4,279938
0,951000	2,287903	4,907227
0,952000	2,066498	4,999847
0,953000	2,031403	4,999847
0,954000	2,167358	4,999847
0,955000	2,578430	4,999847
0,956000	2,868500	4,927826
0,957000	3,212280	3,307190
0,958000	3,565521	2,918701
0,959000	3,876343	3,437958
0,960000	4,103699	4,999847
0,961000	4,320221	4,999847
0,962000	4,467773	4,999847
0,963000	4,486237	4,999847
0,964000	4,368744	4,999847
0,965000	3,979187	4,999847
0,966000	3,755798	4,999847
0,967000	3,481293	4,598999
0,968000	3,161469	3,174438
0,969000	2,902679	4,188385
0,970000	2,590179	4,123535
0,971000	2,292633	4,999847
0,972000	2,070923	4,999847
0,973000	2,013092	4,999847
0,974000	2,145996	4,999847
0,975000	2,573395	4,999847
0,976000	2,850037	4,999847
0,977000	3,188019	4,155884
0,978000	3,557129	2,859650
0,979000	3,852081	3,265381
0,980000	4,100342	4,999847
0,981000	4,297485	4,999847
0,982000	4,455261	4,999847
0,983000	4,481354	4,999847
0,984000	4,362183	4,999847
0,985000	3,976593	4,999847
0,986000	3,755646	4,999847
0,987000	3,462982	4,012451
0,988000	3,153839	3,237152
0,989000	2,898254	4,999847
0,990000	2,575378	3,769531
0,991000	2,291718	4,999847
0,992000	2,058563	4,999847
0,993000	2,001190	4,999847
0,994000	2,142944	4,999847
0,995000	2,568512	4,999847
0,996000	2,833099	4,999847
0,997000	3,166962	4,448395
0,998000	3,539276	3,007965
0,999000	3,821716	3,521118

