LabVIEW Measurement	
Writer_Version	2
Reader_Version	2
Separator	Tab
Decimal_Separator	,
Multi_Headings	Yes
X_Columns	One
Time_Pref	Absolute
Operator	d.nicolai
Date	2023/11/09
Time	16:50:04,4285122999997786159
***End_of_Header***	
	
Channels	2		
Samples	1000	1000	
Date	2023/11/09	2023/11/09	
Time	16:50:07,3465127999998210747	16:50:07,3465127999998210747	
Y_Unit_Label	Volts	Volts	
X_Dimension	Time	Time	
X0	0,0000000000000000E+0	0,0000000000000000E+0	
Delta_X	0,001000	0,001000	
***End_of_Header***			
X_Value	powebox	triggerbox	Comment
0,000000	3,905182	0,960693
0,001000	4,141693	4,775238
0,002000	4,383392	4,999847
0,003000	4,539948	4,999847
0,004000	4,617310	4,999847
0,005000	4,598236	4,999847
0,006000	4,200897	4,999847
0,007000	3,998413	4,999847
0,008000	3,748322	4,999847
0,009000	3,436890	3,655090
0,010000	3,086243	2,054901
0,011000	2,875671	4,178772
0,012000	2,528687	4,539337
0,013000	2,286530	4,999847
0,014000	2,174530	4,999847
0,015000	2,166748	4,999847
0,016000	2,593384	4,999847
0,017000	2,856140	4,999847
0,018000	3,175507	4,845734
0,019000	3,538513	3,214722
0,020000	3,849640	3,446503
0,021000	4,132233	4,999847
0,022000	4,375458	4,999847
0,023000	4,537506	4,999847
0,024000	4,615326	4,999847
0,025000	4,588470	4,999847
0,026000	4,209290	4,999847
0,027000	3,998871	4,999847
0,028000	3,743439	4,999847
0,029000	3,446960	3,913422
0,030000	3,089905	2,173309
0,031000	2,874756	4,097290
0,032000	2,515106	3,371277
0,033000	2,286987	4,999847
0,034000	2,162323	4,999847
0,035000	2,165070	4,999847
0,036000	2,591095	4,999847
0,037000	2,853088	4,999847
0,038000	3,167572	4,999847
0,039000	3,529053	3,511353
0,040000	3,885803	1,919861
0,041000	4,137573	4,778748
0,042000	4,373169	4,999847
0,043000	4,526215	4,999847
0,044000	4,626465	4,999847
0,045000	4,597473	4,999847
0,046000	4,214783	4,999847
0,047000	3,991089	4,999847
0,048000	3,742828	4,999847
0,049000	3,438263	3,462372
0,050000	3,165741	3,976135
0,051000	2,879486	4,088898
0,052000	2,522736	3,763580
0,053000	2,297516	4,999847
0,054000	2,170410	4,999847
0,055000	2,167053	4,999847
0,056000	2,593384	4,999847
0,057000	2,864227	4,999847
0,058000	3,173828	4,785767
0,059000	3,529510	3,370972
0,060000	3,847351	3,208618
0,061000	4,126434	4,999847
0,062000	4,383392	4,939728
0,063000	4,541321	4,999847
0,064000	4,615631	4,999847
0,065000	4,600067	4,999847
0,066000	4,218140	4,999847
0,067000	4,002533	4,999847
0,068000	3,755188	4,999847
0,069000	3,449402	3,839569
0,070000	3,165131	4,074249
0,071000	2,881622	3,869019
0,072000	2,525330	3,776245
0,073000	2,309418	4,999847
0,074000	2,164764	4,999847
0,075000	2,183990	4,999847
0,076000	2,597656	4,999847
0,077000	2,849884	4,999847
0,078000	3,171539	4,740295
0,079000	3,535004	2,859344
0,080000	3,867187	3,153534
0,081000	4,136200	4,868164
0,082000	4,380798	4,907837
0,083000	4,537354	4,999847
0,084000	4,611816	4,999847
0,085000	4,599609	4,999847
0,086000	4,215088	4,999847
0,087000	4,012299	4,999847
0,088000	3,754578	4,999847
0,089000	3,462219	4,307098
0,090000	3,122864	3,207092
0,091000	2,890320	4,307251
0,092000	2,545166	4,407959
0,093000	2,306824	4,999847
0,094000	2,156830	4,999847
0,095000	2,174225	4,999847
0,096000	2,594147	4,999847
0,097000	2,847137	4,999847
0,098000	3,158722	4,999847
0,099000	3,535767	2,894592
0,100000	3,845673	3,349152
0,101000	4,124603	4,999847
0,102000	4,372406	4,999847
0,103000	4,529572	4,999847
0,104000	4,627838	4,999847
0,105000	4,596405	4,999847
0,106000	4,214325	4,999847
0,107000	4,007568	4,999847
0,108000	3,753204	4,999847
0,109000	3,466949	4,387360
0,110000	3,175812	4,642181
0,111000	2,876434	3,327179
0,112000	2,534027	3,546753
0,113000	2,314148	4,999847
0,114000	2,173157	4,999847
0,115000	2,164917	4,999847
0,116000	2,588043	4,999847
0,117000	2,850647	4,999847
0,118000	3,171692	4,671936
0,119000	3,522339	3,306427
0,120000	3,840790	3,774872
0,121000	4,120483	4,999847
0,122000	4,385376	4,508362
0,123000	4,540863	4,999847
0,124000	4,625854	4,999847
0,125000	4,601898	4,999847
0,126000	4,232788	4,999847
0,127000	4,012299	4,999847
0,128000	3,750763	4,999847
0,129000	3,455811	3,553314
0,130000	3,138275	3,543091
0,131000	2,899323	4,600067
0,132000	2,541504	3,876038
0,133000	2,297363	4,999847
0,134000	2,157288	4,999847
0,135000	2,167969	4,999847
0,136000	2,587433	4,999847
0,137000	2,837067	4,999847
0,138000	3,161316	4,999847
0,139000	3,518829	3,431396
0,140000	3,852386	3,051453
0,141000	4,130402	4,996033
0,142000	4,375916	4,960022
0,143000	4,522705	4,999847
0,144000	4,633331	4,999847
0,145000	4,595184	4,999847
0,146000	4,231110	4,999847
0,147000	4,023285	4,999847
0,148000	3,757172	4,999847
0,149000	3,476257	4,482574
0,150000	3,177795	4,999847
0,151000	2,883301	3,197174
0,152000	2,549896	3,957214
0,153000	2,298431	4,999847
0,154000	2,166748	4,999847
0,155000	2,174225	4,999847
0,156000	2,582550	4,999847
0,157000	2,837830	4,999847
0,158000	3,170013	4,541779
0,159000	3,532410	2,670898
0,160000	3,814545	4,353638
0,161000	4,141083	4,238434
0,162000	4,379578	4,716492
0,163000	4,522705	4,999847
0,164000	4,623566	4,999847
0,165000	4,602051	4,999847
0,166000	4,231720	4,999847
0,167000	4,020996	4,999847
0,168000	3,753967	4,920197
0,169000	3,479614	4,423523
0,170000	3,153839	4,102631
0,171000	2,888794	3,564301
0,172000	2,558594	4,338684
0,173000	2,305756	4,999847
0,174000	2,163239	4,999847
0,175000	2,176056	4,999847
0,176000	2,585907	4,999847
0,177000	2,839813	4,999847
0,178000	3,162994	4,952393
0,179000	3,521576	2,983246
0,180000	3,822327	3,940430
0,181000	4,133453	3,955383
0,182000	4,368286	4,999847
0,183000	4,530640	4,999847
0,184000	4,626770	4,999847
0,185000	4,603577	4,999847
0,186000	4,236755	4,999847
0,187000	4,023895	4,999847
0,188000	3,753815	4,656677
0,189000	3,468170	3,689575
0,190000	3,141174	2,956085
0,191000	2,898712	3,686371
0,192000	2,568207	4,620514
0,193000	2,336578	4,999847
0,194000	2,152557	4,999847
0,195000	2,182465	4,999847
0,196000	2,587433	4,999847
0,197000	2,834778	4,999847
0,198000	3,160400	4,881592
0,199000	3,523865	2,852936
0,200000	3,850250	3,865204
0,201000	4,136505	4,461365
0,202000	4,375916	4,821625
0,203000	4,529419	4,999847
0,204000	4,627686	4,999847
0,205000	4,606323	4,999847
0,206000	4,250336	4,999847
0,207000	4,024200	4,999847
0,208000	3,761139	4,938202
0,209000	3,484650	4,324951
0,210000	3,195190	4,800568
0,211000	2,899170	3,650665
0,212000	2,559357	3,999786
0,213000	2,324219	4,999847
0,214000	2,161255	4,999847
0,215000	2,174988	4,999847
0,216000	2,576599	4,999847
0,217000	2,839966	4,999847
0,218000	3,158569	4,901276
0,219000	3,504791	3,743134
0,220000	3,798523	4,988708
0,221000	4,145355	3,209534
0,222000	4,366608	4,999847
0,223000	4,532776	4,999847
0,224000	4,631500	4,999847
0,225000	4,601135	4,999847
0,226000	4,250641	4,999847
0,227000	4,038849	4,999847
0,228000	3,769684	4,999847
0,229000	3,498230	4,997253
0,230000	3,187103	3,914032
0,231000	2,909546	3,745728
0,232000	2,558441	3,615875
0,233000	2,326508	4,999847
0,234000	2,161407	4,999847
0,235000	2,183685	4,999847
0,236000	2,576904	4,999847
0,237000	2,830963	4,999847
0,238000	3,168030	4,200134
0,239000	3,518677	2,936249
0,240000	3,862152	2,581177
0,241000	4,116974	4,999847
0,242000	4,367218	4,999847
0,243000	4,524689	4,999847
0,244000	4,627686	4,999847
0,245000	4,601135	4,999847
0,246000	4,268646	4,999847
0,247000	4,029388	4,999847
0,248000	3,761902	4,657745
0,249000	3,482513	4,006805
0,250000	3,160858	3,638763
0,251000	2,917786	4,999847
0,252000	2,574921	4,459229
0,253000	2,309265	4,999847
0,254000	2,164001	4,999847
0,255000	2,173004	4,999847
0,256000	2,582245	4,999847
0,257000	2,834473	4,999847
0,258000	3,161926	4,536591
0,259000	3,502808	3,626709
0,260000	3,835297	3,111572
0,261000	4,153290	3,211212
0,262000	4,369507	4,905243
0,263000	4,512482	4,999847
0,264000	4,627991	4,999847
0,265000	4,601593	4,999847
0,266000	4,274445	4,999847
0,267000	4,036560	4,999847
0,268000	3,771057	4,901886
0,269000	3,502655	4,945374
0,270000	3,157654	3,389740
0,271000	2,898865	2,977600
0,272000	2,565460	3,815765
0,273000	2,319489	4,999847
0,274000	2,175293	4,999847
0,275000	2,180634	4,999847
0,276000	2,566833	4,999847
0,277000	2,829132	4,999847
0,278000	3,168030	3,991547
0,279000	3,498993	3,730316
0,280000	3,821869	3,522491
0,281000	4,153748	2,853241
0,282000	4,359741	4,999847
0,283000	4,537659	4,999847
0,284000	4,630280	4,999847
0,285000	4,604492	4,999847
0,286000	4,274750	4,999847
0,287000	4,043121	4,999847
0,288000	3,775787	4,999847
0,289000	3,500671	4,534760
0,290000	3,165131	3,549194
0,291000	2,924805	4,999847
0,292000	2,586670	4,633942
0,293000	2,326660	4,999847
0,294000	2,169952	4,999847
0,295000	2,180939	4,999847
0,296000	2,566528	4,999847
0,297000	2,845917	4,999847
0,298000	3,152466	4,768372
0,299000	3,490295	4,146118
0,300000	3,879395	2,188568
0,301000	4,131470	4,497375
0,302000	4,363403	4,999847
0,303000	4,540558	4,999847
0,304000	4,631500	4,999847
0,305000	4,618073	4,999847
0,306000	4,291687	4,999847
0,307000	4,035339	4,999847
0,308000	3,787994	4,999847
0,309000	3,504791	4,681854
0,310000	3,184967	3,897858
0,311000	2,910156	3,179779
0,312000	2,574768	3,836060
0,313000	2,331543	4,999847
0,314000	2,176666	4,999847
0,315000	2,174225	4,999847
0,316000	2,545776	4,999847
0,317000	2,844696	4,999847
0,318000	3,156128	4,534149
0,319000	3,491516	3,937683
0,320000	3,812103	3,869629
0,321000	4,137421	3,750305
0,322000	4,364471	4,999847
0,323000	4,531403	4,999847
0,324000	4,618378	4,999847
0,325000	4,617004	4,999847
0,326000	4,300385	4,999847
0,327000	4,042816	4,999847
0,328000	3,775940	4,790192
0,329000	3,500519	4,381561
0,330000	3,148956	2,303925
0,331000	2,933502	4,558716
0,332000	2,569427	3,313446
0,333000	2,335663	4,999847
0,334000	2,176819	4,999847
0,335000	2,174377	4,999847
0,336000	2,570953	4,999847
0,337000	2,833557	4,999847
0,338000	3,151703	4,716187
0,339000	3,494720	3,682251
0,340000	3,822632	3,177948
0,341000	4,116821	4,293060
0,342000	4,363251	4,999847
0,343000	4,539490	4,999847
0,344000	4,630737	4,999847
0,345000	4,618073	4,999847
0,346000	4,285126	4,999847
0,347000	4,040680	4,999847
0,348000	3,795319	4,999847
0,349000	3,497314	3,871918
0,350000	3,149719	2,033386
0,351000	2,952576	4,999847
0,352000	2,593079	4,287720
0,353000	2,324829	4,950562
0,354000	2,169495	4,999847
0,355000	2,167511	4,999847
0,356000	2,560120	4,999847
0,357000	2,830353	4,999847
0,358000	3,140717	4,999847
0,359000	3,495636	3,582306
0,360000	3,854980	3,016510
0,361000	4,119873	4,880981
0,362000	4,369965	4,576874
0,363000	4,516144	4,999847
0,364000	4,632111	4,999847
0,365000	4,627533	4,999847
0,366000	4,298248	4,999847
0,367000	4,037323	4,999847
0,368000	3,792267	4,999847
0,369000	3,510284	4,499207
0,370000	3,176270	3,382568
0,371000	2,926788	4,130859
0,372000	2,574768	3,137054
0,373000	2,357330	4,999847
0,374000	2,181549	4,999847
0,375000	2,169189	4,999847
0,376000	2,556610	4,999847
0,377000	2,838287	4,999847
0,378000	3,138885	4,999847
0,379000	3,488159	3,779297
0,380000	3,863983	2,643890
0,381000	4,103241	4,999847
0,382000	4,374237	4,188232
0,383000	4,528503	4,999847
0,384000	4,627838	4,999847
0,385000	4,622040	4,999847
0,386000	4,298096	4,999847
0,387000	4,046936	4,999847
0,388000	3,799591	4,999847
0,389000	3,518372	4,697723
0,390000	3,169098	2,610626
0,391000	2,955170	4,766541
0,392000	2,589417	3,786926
0,393000	2,341919	4,999847
0,394000	2,176208	4,999847
0,395000	2,174225	4,999847
0,396000	2,568512	4,999847
0,397000	2,824402	4,999847
0,398000	3,137817	4,999847
0,399000	3,502960	2,970428
0,400000	3,814240	3,367767
0,401000	4,120483	4,284821
0,402000	4,369049	4,336090
0,403000	4,519806	4,999847
0,404000	4,622040	4,999847
0,405000	4,625244	4,999847
0,406000	4,312897	4,999847
0,407000	4,060516	4,999847
0,408000	3,795166	4,999847
0,409000	3,515320	4,294739
0,410000	3,168182	2,469025
0,411000	2,953796	4,631500
0,412000	2,580719	3,008423
0,413000	2,354431	4,999847
0,414000	2,181549	4,999847
0,415000	2,178192	4,999847
0,416000	2,555542	4,999847
0,417000	2,834015	4,999847
0,418000	3,145752	4,705505
0,419000	3,503265	2,882996
0,420000	3,864136	1,759491
0,421000	4,124908	4,323730
0,422000	4,361420	4,678802
0,423000	4,534760	4,999847
0,424000	4,628601	4,999847
0,425000	4,627991	4,999847
0,426000	4,307556	4,999847
0,427000	4,051361	4,999847
0,428000	3,796234	4,999847
0,429000	3,519440	4,317322
0,430000	3,181000	2,943268
0,431000	2,957001	4,971161
0,432000	2,583008	2,870636
0,433000	2,355804	4,999847
0,434000	2,185516	4,999847
0,435000	2,175140	4,999847
0,436000	2,554474	4,999847
0,437000	2,829285	4,999847
0,438000	3,132782	4,999847
0,439000	3,480377	3,945465
0,440000	3,861237	2,256012
0,441000	4,121246	4,568481
0,442000	4,367828	4,357147
0,443000	4,538422	4,999847
0,444000	4,641266	4,999847
0,445000	4,626617	4,999847
0,446000	4,315033	4,999847
0,447000	4,062500	4,999847
0,448000	3,803864	4,999847
0,449000	3,519745	4,179687
0,450000	3,179169	2,637177
0,451000	2,933044	4,254608
0,452000	2,585449	2,685394
0,453000	2,338409	4,999847
0,454000	2,188263	4,999847
0,455000	2,169647	4,999847
0,456000	2,544861	4,999847
0,457000	2,827301	4,999847
0,458000	3,140106	4,840698
0,459000	3,498993	2,846069
0,460000	3,813934	3,536987
0,461000	4,126282	4,033661
0,462000	4,361572	4,665222
0,463000	4,518890	4,999847
0,464000	4,635162	4,999847
0,465000	4,631042	4,999847
0,466000	4,307251	4,999847
0,467000	4,071808	4,999847
0,468000	3,806000	4,999847
0,469000	3,526001	4,283142
0,470000	3,183136	2,703705
0,471000	2,962036	4,710693
0,472000	2,590942	2,791901
0,473000	2,374268	4,999847
0,474000	2,178955	4,999847
0,475000	2,177429	4,999847
0,476000	2,538452	4,999847
0,477000	2,813873	4,999847
0,478000	3,140717	4,629822
0,479000	3,476562	3,933868
0,480000	3,824158	3,056946
0,481000	4,138641	3,386688
0,482000	4,363403	4,532166
0,483000	4,524231	4,999847
0,484000	4,640198	4,999847
0,485000	4,627838	4,999847
0,486000	4,319000	4,999847
0,487000	4,077911	4,999847
0,488000	3,805695	4,988708
0,489000	3,514404	3,582764
0,490000	3,213501	4,101715
0,491000	2,961884	4,939575
0,492000	2,598267	2,848053
0,493000	2,354126	4,999847
0,494000	2,176666	4,999847
0,495000	2,182617	4,999847
0,496000	2,535858	4,999847
0,497000	2,812805	4,999847
0,498000	3,140564	4,557495
0,499000	3,481750	3,466797
0,500000	3,825226	3,166046
0,501000	4,122314	4,150848
0,502000	4,348907	4,999847
0,503000	4,524689	4,999847
0,504000	4,642334	4,999847
0,505000	4,627686	4,999847
0,506000	4,339294	4,999847
0,507000	4,085083	4,999847
0,508000	3,804321	4,775543
0,509000	3,531494	4,220428
0,510000	3,210297	3,438110
0,511000	2,953186	3,464508
0,512000	2,613678	3,613586
0,513000	2,351379	4,999847
0,514000	2,178345	4,999847
0,515000	2,176666	4,999847
0,516000	2,527618	4,999847
0,517000	2,813721	4,999847
0,518000	3,133850	4,668884
0,519000	3,478088	3,497925
0,520000	3,793182	4,158325
0,521000	4,116669	2,634583
0,522000	4,351501	4,879456
0,523000	4,513245	4,999847
0,524000	4,641113	4,999847
0,525000	4,632721	4,999847
0,526000	4,332428	4,999847
0,527000	4,080505	4,999847
0,528000	3,816833	4,999847
0,529000	3,536987	4,489288
0,530000	3,259735	4,834595
0,531000	2,963104	3,572693
0,532000	2,611084	3,290253
0,533000	2,371521	4,999847
0,534000	2,174835	4,999847
0,535000	2,182770	4,999847
0,536000	2,515106	4,999847
0,537000	2,816010	4,999847
0,538000	3,141022	4,240723
0,539000	3,476257	3,567963
0,540000	3,782349	4,769897
0,541000	4,110260	3,975067
0,542000	4,346619	4,968109
0,543000	4,520416	4,999847
0,544000	4,636688	4,999847
0,545000	4,624786	4,999847
0,546000	4,343262	4,999847
0,547000	4,071198	4,999847
0,548000	3,814697	4,951324
0,549000	3,531189	3,933563
0,550000	3,199615	2,769012
0,551000	2,962646	3,880310
0,552000	2,616577	3,221588
0,553000	2,369690	4,999847
0,554000	2,177734	4,999847
0,555000	2,189636	4,999847
0,556000	2,525787	4,999847
0,557000	2,816315	4,999847
0,558000	3,139038	4,200287
0,559000	3,484344	3,180389
0,560000	3,818970	3,827057
0,561000	4,127960	3,769836
0,562000	4,339447	4,999847
0,563000	4,522705	4,999847
0,564000	4,642029	4,999847
0,565000	4,633789	4,999847
0,566000	4,351959	4,999847
0,567000	4,075775	4,999847
0,568000	3,810120	4,557953
0,569000	3,556976	4,999847
0,570000	3,226624	3,877716
0,571000	2,950897	3,611603
0,572000	2,632904	3,984222
0,573000	2,377167	4,999847
0,574000	2,179718	4,999847
0,575000	2,175751	4,999847
0,576000	2,504578	4,999847
0,577000	2,806549	4,999847
0,578000	3,135376	4,434204
0,579000	3,471375	3,730774
0,580000	3,812561	3,256836
0,581000	4,123077	3,663177
0,582000	4,338074	4,999847
0,583000	4,512787	4,999847
0,584000	4,645081	4,999847
0,585000	4,628143	4,999847
0,586000	4,371796	4,999847
0,587000	4,067688	4,999847
0,588000	3,829498	4,999847
0,589000	3,540192	4,120789
0,590000	3,217010	3,262177
0,591000	2,972717	4,101105
0,592000	2,634735	3,754578
0,593000	2,354736	4,699402
0,594000	2,190399	4,999847
0,595000	2,186279	4,999847
0,596000	2,518311	4,999847
0,597000	2,810059	4,999847
0,598000	3,135834	4,212799
0,599000	3,475037	3,449860
0,600000	3,799896	3,620148
0,601000	4,114227	3,393250
0,602000	4,344025	4,999847
0,603000	4,525909	4,999847
0,604000	4,649200	4,999847
0,605000	4,634705	4,999847
0,606000	4,374390	4,999847
0,607000	4,085541	4,999847
0,608000	3,821564	4,754028
0,609000	3,556671	4,806366
0,610000	3,235321	3,977509
0,611000	2,968750	4,578247
0,612000	2,642059	4,059143
0,613000	2,374725	4,999847
0,614000	2,196808	4,999847
0,615000	2,182922	4,999847
0,616000	2,506104	4,999847
0,617000	2,818604	4,999847
0,618000	3,132629	4,350128
0,619000	3,450623	4,617310
0,620000	3,806763	3,130798
0,621000	4,104614	4,261932
0,622000	4,353943	4,545746
0,623000	4,524078	4,999847
0,624000	4,640198	4,999847
0,625000	4,635315	4,999847
0,626000	4,380951	4,999847
0,627000	4,073639	4,999847
0,628000	3,833313	4,999847
0,629000	3,557892	4,797211
0,630000	3,226471	3,420105
0,631000	2,967224	3,988647
0,632000	2,636108	3,445587
0,633000	2,366333	4,999847
0,634000	2,204437	4,999847
0,635000	2,187500	4,999847
0,636000	2,489624	4,999847
0,637000	2,818146	4,999847
0,638000	3,123627	4,675903
0,639000	3,472137	3,417664
0,640000	3,796692	3,536377
0,641000	4,100189	3,954773
0,642000	4,350586	4,414978
0,643000	4,524994	4,999847
0,644000	4,638672	4,999847
0,645000	4,640656	4,999847
0,646000	4,380646	4,999847
0,647000	4,094086	4,999847
0,648000	3,835602	4,999847
0,649000	3,558044	4,537811
0,650000	3,225555	3,072052
0,651000	2,987823	4,844818
0,652000	2,644196	3,490143
0,653000	2,373810	4,999847
0,654000	2,206573	4,999847
0,655000	2,178040	4,999847
0,656000	2,496338	4,999847
0,657000	2,815247	4,999847
0,658000	3,116608	4,933014
0,659000	3,470306	3,493805
0,660000	3,842010	2,346191
0,661000	4,091034	4,999847
0,662000	4,339600	4,999847
0,663000	4,532776	4,999847
0,664000	4,645844	4,999847
0,665000	4,647217	4,999847
0,666000	4,376526	4,999847
0,667000	4,079437	4,999847
0,668000	3,847504	4,999847
0,669000	3,565674	4,650726
0,670000	3,246155	3,724518
0,671000	2,995758	4,225159
0,672000	2,654419	3,983765
0,673000	2,377472	4,999847
0,674000	2,202759	4,999847
0,675000	2,178192	4,999847
0,676000	2,496948	4,999847
0,677000	2,817078	4,999847
0,678000	3,116302	4,920502
0,679000	3,473206	3,263855
0,680000	3,796692	3,584290
0,681000	4,099884	4,548645
0,682000	4,342346	4,789276
0,683000	4,520874	4,999847
0,684000	4,641418	4,999847
0,685000	4,645996	4,999847
0,686000	4,394836	4,999847
0,687000	4,086609	4,999847
0,688000	3,845520	4,999847
0,689000	3,555603	3,953400
0,690000	3,240662	3,373871
0,691000	2,974243	4,999847
0,692000	2,642822	3,065186
0,693000	2,379456	4,999847
0,694000	2,195740	4,999847
0,695000	2,179718	4,999847
0,696000	2,489777	4,999847
0,697000	2,810364	4,999847
0,698000	3,113861	4,999847
0,699000	3,473358	3,088074
0,700000	3,782806	4,086304
0,701000	4,089050	4,173126
0,702000	4,335632	4,999847
0,703000	4,530640	4,999847
0,704000	4,647369	4,999847
0,705000	4,647369	4,999847
0,706000	4,376984	4,999847
0,707000	4,099426	4,999847
0,708000	3,843079	4,999847
0,709000	3,556519	3,865356
0,710000	3,235168	3,030090
0,711000	3,006592	4,541931
0,712000	2,656555	3,572693
0,713000	2,386017	4,999847
0,714000	2,195129	4,999847
0,715000	2,173920	4,999847
0,716000	2,485504	4,999847
0,717000	2,802887	4,999847
0,718000	3,107758	4,999847
0,719000	3,464966	3,439331
0,720000	3,803101	3,357544
0,721000	4,102478	4,515839
0,722000	4,334259	4,999847
0,723000	4,515839	4,999847
0,724000	4,644470	4,999847
0,725000	4,651184	4,999847
0,726000	4,378967	4,999847
0,727000	4,095459	4,999847
0,728000	3,843994	4,999847
0,729000	3,563080	4,054260
0,730000	3,284454	4,298553
0,731000	2,984772	2,922668
0,732000	2,658234	3,360748
0,733000	2,390747	4,999847
0,734000	2,195435	4,999847
0,735000	2,183838	4,999847
0,736000	2,482147	4,999847
0,737000	2,794952	4,999847
0,738000	3,112640	4,962769
0,739000	3,463898	3,274689
0,740000	3,784943	3,850098
0,741000	4,081573	3,948059
0,742000	4,351349	4,164886
0,743000	4,520874	4,999847
0,744000	4,649048	4,999847
0,745000	4,647827	4,999847
0,746000	4,398804	4,999847
0,747000	4,093933	4,999847
0,748000	3,856812	4,999847
0,749000	3,570709	4,181519
0,750000	3,258667	3,773193
0,751000	3,007812	4,999847
0,752000	2,653503	2,940063
0,753000	2,396545	4,999847
0,754000	2,206573	4,999847
0,755000	2,184601	4,999847
0,756000	2,494659	4,999847
0,757000	2,808380	4,999847
0,758000	3,111725	4,915161
0,759000	3,457489	3,489380
0,760000	3,789825	3,519745
0,761000	4,107819	3,901215
0,762000	4,331665	4,999847
0,763000	4,513092	4,999847
0,764000	4,642181	4,999847
0,765000	4,653778	4,999847
0,766000	4,395447	4,999847
0,767000	4,099426	4,999847
0,768000	3,856506	4,999847
0,769000	3,564301	3,761749
0,770000	3,266602	3,716125
0,771000	2,998962	3,275757
0,772000	2,672424	3,800812
0,773000	2,413635	4,999847
0,774000	2,211761	4,999847
0,775000	2,181091	4,999847
0,776000	2,488708	4,999847
0,777000	2,789917	4,999847
0,778000	3,112946	4,586334
0,779000	3,453522	3,761902
0,780000	3,778076	4,108429
0,781000	4,075775	3,435211
0,782000	4,332733	4,999847
0,783000	4,519653	4,999847
0,784000	4,652100	4,999847
0,785000	4,649048	4,999847
0,786000	4,407806	4,999847
0,787000	4,101410	4,999847
0,788000	3,858032	4,999847
0,789000	3,571472	3,914337
0,790000	3,266144	3,778992
0,791000	3,014679	4,550171
0,792000	2,666931	3,322601
0,793000	2,403259	4,999847
0,794000	2,201691	4,999847
0,795000	2,195587	4,999847
0,796000	2,470551	4,999847
0,797000	2,792816	4,999847
0,798000	3,116760	4,387512
0,799000	3,458557	3,271484
0,800000	3,772583	4,290924
0,801000	4,084778	4,107971
0,802000	4,324341	4,999847
0,803000	4,521179	4,999847
0,804000	4,653778	4,999847
0,805000	4,642181	4,999847
0,806000	4,411621	4,999847
0,807000	4,123383	4,999847
0,808000	3,848724	4,581757
0,809000	3,570557	3,763580
0,810000	3,256836	3,146820
0,811000	2,991791	4,156036
0,812000	2,687836	4,199219
0,813000	2,403870	4,999847
0,814000	2,194519	4,999847
0,815000	2,189941	4,999847
0,816000	2,461853	4,999847
0,817000	2,791595	4,999847
0,818000	3,106079	4,776917
0,819000	3,456421	3,300476
0,820000	3,778534	3,947449
0,821000	4,099884	3,217773
0,822000	4,324036	4,999847
0,823000	4,528198	4,999847
0,824000	4,659729	4,999847
0,825000	4,654083	4,999847
0,826000	4,428711	4,999847
0,827000	4,121552	4,999847
0,828000	3,860779	4,977722
0,829000	3,582764	4,214630
0,830000	3,291016	4,201355
0,831000	3,015137	3,348389
0,832000	2,681580	3,549347
0,833000	2,402191	4,999847
0,834000	2,198944	4,999847
0,835000	2,191162	4,999847
0,836000	2,449646	4,999847
0,837000	2,789001	4,999847
0,838000	3,112946	4,398499
0,839000	3,437042	4,229584
0,840000	3,764191	4,605713
0,841000	4,119720	2,656860
0,842000	4,314728	4,999847
0,843000	4,519653	4,999847
0,844000	4,654541	4,999847
0,845000	4,648285	4,999847
0,846000	4,433441	4,999847
0,847000	4,124146	4,999847
0,848000	3,859100	4,841156
0,849000	3,588104	4,408875
0,850000	3,257751	2,856598
0,851000	2,984009	3,282776
0,852000	2,698669	4,170837
0,853000	2,393341	4,656525
0,854000	2,192841	4,999847
0,855000	2,198029	4,999847
0,856000	2,451935	4,999847
0,857000	2,801514	4,999847
0,858000	3,103027	4,711761
0,859000	3,448944	3,607635
0,860000	3,771515	4,072266
0,861000	4,083862	4,340820
0,862000	4,317932	4,999847
0,863000	4,517365	4,999847
0,864000	4,656219	4,999847
0,865000	4,651337	4,999847
0,866000	4,439392	4,999847
0,867000	4,120026	4,999847
0,868000	3,862915	4,789429
0,869000	3,590088	4,230804
0,870000	3,304901	4,302521
0,871000	3,030090	3,838043
0,872000	2,696228	3,979034
0,873000	2,406158	4,876862
0,874000	2,208710	4,999847
0,875000	2,190704	4,999847
0,876000	2,452545	4,999847
0,877000	2,794495	4,999847
0,878000	3,096313	4,999847
0,879000	3,449402	3,499603
0,880000	3,775940	3,765869
0,881000	4,083862	3,843994
0,882000	4,320374	4,999847
0,883000	4,524841	4,999847
0,884000	4,652710	4,999847
0,885000	4,653168	4,999847
0,886000	4,443970	4,999847
0,887000	4,123230	4,999847
0,888000	3,874512	4,999847
0,889000	3,598175	4,601746
0,890000	3,274384	3,242493
0,891000	3,013306	4,060364
0,892000	2,710266	4,544373
0,893000	2,410431	4,999847
0,894000	2,212219	4,999847
0,895000	2,193298	4,999847
0,896000	2,439880	4,999847
0,897000	2,812500	4,999847
0,898000	3,099060	4,822083
0,899000	3,431091	4,257660
0,900000	3,789062	3,079224
0,901000	4,092407	4,182892
0,902000	4,326630	4,965515
0,903000	4,530334	4,999847
0,904000	4,644012	4,999847
0,905000	4,649048	4,999847
0,906000	4,441071	4,999847
0,907000	4,112549	4,999847
0,908000	3,877716	4,999847
0,909000	3,600616	4,449768
0,910000	3,280945	3,324127
0,911000	3,048553	4,732208
0,912000	2,713470	4,356842
0,913000	2,407227	4,721527
0,914000	2,218323	4,999847
0,915000	2,185364	4,999847
0,916000	2,449951	4,999847
0,917000	2,796631	4,999847
0,918000	3,092957	4,999847
0,919000	3,446960	3,337250
0,920000	3,778381	3,561401
0,921000	4,074860	3,896637
0,922000	4,313965	4,999847
0,923000	4,521027	4,999847
0,924000	4,653320	4,999847
0,925000	4,657135	4,999847
0,926000	4,445953	4,999847
0,927000	4,112701	4,999847
0,928000	3,883514	4,999847
0,929000	3,611298	4,915924
0,930000	3,309326	3,885498
0,931000	3,044586	3,755493
0,932000	2,708740	4,082794
0,933000	2,426147	4,999847
0,934000	2,206573	4,999847
0,935000	2,191467	4,999847
0,936000	2,447815	4,999847
0,937000	2,785339	4,999847
0,938000	3,087463	4,999847
0,939000	3,421936	4,574280
0,940000	3,780212	3,402557
0,941000	4,078217	4,611816
0,942000	4,324188	4,999847
0,943000	4,526672	4,999847
0,944000	4,656677	4,999847
0,945000	4,657440	4,999847
0,946000	4,449921	4,999847
0,947000	4,116211	4,999847
0,948000	3,888245	4,999847
0,949000	3,613434	4,789276
0,950000	3,281097	3,108063
0,951000	3,053741	4,999847
0,952000	2,704010	3,652954
0,953000	2,441711	4,999847
0,954000	2,218475	4,999847
0,955000	2,190247	4,999847
0,956000	2,443085	4,999847
0,957000	2,800140	4,999847
0,958000	3,097534	4,685669
0,959000	3,443146	3,287201
0,960000	3,793945	3,036194
0,961000	4,091187	4,392395
0,962000	4,313965	4,999847
0,963000	4,515533	4,999847
0,964000	4,644775	4,999847
0,965000	4,661102	4,999847
0,966000	4,456177	4,999847
0,967000	4,127502	4,999847
0,968000	3,896484	4,999847
0,969000	3,611450	4,584198
0,970000	3,285675	3,130188
0,971000	3,030090	4,894104
0,972000	2,716217	3,844147
0,973000	2,430878	4,999847
0,974000	2,209167	4,999847
0,975000	2,193756	4,999847
0,976000	2,450714	4,999847
0,977000	2,792969	4,999847
0,978000	3,081970	4,999847
0,979000	3,431244	3,902283
0,980000	3,773651	3,587952
0,981000	4,094238	3,764496
0,982000	4,307098	4,999847
0,983000	4,506531	4,999847
0,984000	4,643860	4,999847
0,985000	4,660492	4,999847
0,986000	4,452057	4,999847
0,987000	4,120026	4,999847
0,988000	3,891449	4,999847
0,989000	3,596344	3,471527
0,990000	3,296509	3,552246
0,991000	3,047180	4,220276
0,992000	2,726288	4,271393
0,993000	2,440491	4,999847
0,994000	2,218323	4,999847
0,995000	2,186737	4,999847
0,996000	2,426300	4,999847
0,997000	2,786255	4,999847
0,998000	3,079376	4,999847
0,999000	3,443604	3,125458

