LabVIEW Measurement	
Writer_Version	2
Reader_Version	2
Separator	Tab
Decimal_Separator	,
Multi_Headings	Yes
X_Columns	One
Time_Pref	Absolute
Operator	d.nicolai
Date	2023/11/09
Time	16:50:04,4285122999997786159
***End_of_Header***	
	
Channels	2		
Samples	1000	1000	
Date	2023/11/09	2023/11/09	
Time	16:50:13,2295123999998816568	16:50:13,2295123999998816568	
Y_Unit_Label	Volts	Volts	
X_Dimension	Time	Time	
X0	0,0000000000000000E+0	0,0000000000000000E+0	
Delta_X	0,001000	0,001000	
***End_of_Header***			
X_Value	powebox	triggerbox	Comment
0,000000	4,087982	1,058807
0,001000	4,331512	4,696960
0,002000	4,571686	4,999847
0,003000	4,745636	4,999847
0,004000	4,826965	4,999847
0,005000	4,800110	4,999847
0,006000	4,441833	4,999847
0,007000	4,215240	4,999847
0,008000	3,959198	4,999847
0,009000	3,690186	4,999847
0,010000	3,367920	3,987274
0,011000	3,082428	3,079224
0,012000	2,749329	4,155579
0,013000	2,484894	4,786224
0,014000	2,367859	4,999847
0,015000	2,352753	4,999847
0,016000	2,768402	4,999847
0,017000	3,040771	4,999847
0,018000	3,351593	4,999847
0,019000	3,709869	3,688507
0,020000	4,026642	3,492889
0,021000	4,334564	4,040375
0,022000	4,572906	4,999847
0,023000	4,733276	4,999847
0,024000	4,819489	4,999847
0,025000	4,799652	4,999847
0,026000	4,451752	4,999847
0,027000	4,220276	4,999847
0,028000	3,965912	4,999847
0,029000	3,685303	4,637146
0,030000	3,345642	3,398285
0,031000	3,107147	4,999847
0,032000	2,737732	3,402557
0,033000	2,498169	4,999847
0,034000	2,357330	4,999847
0,035000	2,370300	4,999847
0,036000	2,763977	4,999847
0,037000	3,037872	4,999847
0,038000	3,350067	4,999847
0,039000	3,702393	3,767242
0,040000	4,068298	3,009644
0,041000	4,322968	4,999847
0,042000	4,569397	4,999847
0,043000	4,730377	4,999847
0,044000	4,813995	4,999847
0,045000	4,805145	4,999847
0,046000	4,454041	4,999847
0,047000	4,221649	4,999847
0,048000	3,963776	4,999847
0,049000	3,668823	3,672485
0,050000	3,370514	3,556976
0,051000	3,107452	4,176788
0,052000	2,758026	4,319611
0,053000	2,504730	4,999847
0,054000	2,357178	4,999847
0,055000	2,357178	4,999847
0,056000	2,774963	4,999847
0,057000	3,027802	4,999847
0,058000	3,345337	4,999847
0,059000	3,699188	3,822174
0,060000	4,067993	2,051544
0,061000	4,314270	4,999847
0,062000	4,573364	4,706421
0,063000	4,726868	4,999847
0,064000	4,807739	4,999847
0,065000	4,811401	4,999847
0,066000	4,445801	4,999847
0,067000	4,231567	4,999847
0,068000	3,978119	4,999847
0,069000	3,693390	4,816589
0,070000	3,342590	2,990112
0,071000	3,106384	4,524994
0,072000	2,736206	3,103180
0,073000	2,513123	4,999847
0,074000	2,367096	4,999847
0,075000	2,355042	4,999847
0,076000	2,768555	4,999847
0,077000	3,038177	4,999847
0,078000	3,352356	4,757690
0,079000	3,715820	2,891541
0,080000	4,069366	2,705994
0,081000	4,330597	4,519806
0,082000	4,579468	4,413910
0,083000	4,729614	4,999847
0,084000	4,820099	4,999847
0,085000	4,807892	4,999847
0,086000	4,456329	4,999847
0,087000	4,224243	4,999847
0,088000	3,968964	4,999847
0,089000	3,670959	3,471222
0,090000	3,344421	3,134155
0,091000	3,112183	4,160156
0,092000	2,765656	4,318542
0,093000	2,518921	4,999847
0,094000	2,356567	4,999847
0,095000	2,360687	4,999847
0,096000	2,757416	4,999847
0,097000	3,032684	4,999847
0,098000	3,350830	4,861450
0,099000	3,715668	2,898560
0,100000	4,032898	3,415527
0,101000	4,320374	4,999847
0,102000	4,562683	4,999847
0,103000	4,714050	4,999847
0,104000	4,820404	4,999847
0,105000	4,813080	4,999847
0,106000	4,458618	4,999847
0,107000	4,230499	4,999847
0,108000	3,971558	4,999847
0,109000	3,672943	3,495026
0,110000	3,342896	2,823029
0,111000	3,105011	3,807220
0,112000	2,759094	3,738556
0,113000	2,518921	4,999847
0,114000	2,362976	4,999847
0,115000	2,356873	4,999847
0,116000	2,764893	4,999847
0,117000	3,034973	4,999847
0,118000	3,350220	4,929199
0,119000	3,699341	3,671417
0,120000	4,055634	3,182220
0,121000	4,334259	4,272156
0,122000	4,578400	4,465027
0,123000	4,723053	4,999847
0,124000	4,821472	4,999847
0,125000	4,809418	4,999847
0,126000	4,460602	4,999847
0,127000	4,233246	4,999847
0,128000	3,978424	4,999847
0,129000	3,676910	3,622742
0,130000	3,392487	4,008636
0,131000	3,098907	3,034210
0,132000	2,756500	3,603821
0,133000	2,505646	4,999847
0,134000	2,365112	4,999847
0,135000	2,361298	4,999847
0,136000	2,757416	4,999847
0,137000	3,021545	4,999847
0,138000	3,342896	4,999847
0,139000	3,702698	3,376465
0,140000	4,029236	3,190460
0,141000	4,335785	4,024506
0,142000	4,559326	4,999847
0,143000	4,721985	4,999847
0,144000	4,827271	4,999847
0,145000	4,817505	4,999847
0,146000	4,465332	4,999847
0,147000	4,247589	4,999847
0,148000	3,973846	4,999847
0,149000	3,684387	3,795624
0,150000	3,359375	3,305817
0,151000	3,138428	4,999847
0,152000	2,757111	3,450470
0,153000	2,527161	4,999847
0,154000	2,370148	4,999847
0,155000	2,360687	4,999847
0,156000	2,771301	4,999847
0,157000	3,018799	4,999847
0,158000	3,343048	4,972382
0,159000	3,701630	3,397827
0,160000	4,042511	3,283081
0,161000	4,320068	4,925995
0,162000	4,570618	4,536896
0,163000	4,719086	4,999847
0,164000	4,833832	4,999847
0,165000	4,817657	4,999847
0,166000	4,461365	4,999847
0,167000	4,234314	4,999847
0,168000	3,976440	4,999847
0,169000	3,685455	3,778381
0,170000	3,368988	3,730927
0,171000	3,121643	4,065247
0,172000	2,756500	3,330078
0,173000	2,544556	4,999847
0,174000	2,351837	4,999847
0,175000	2,365417	4,999847
0,176000	2,753448	4,999847
0,177000	3,022919	4,999847
0,178000	3,355408	4,326324
0,179000	3,693542	3,598785
0,180000	4,048157	3,443909
0,181000	4,323120	4,708710
0,182000	4,573669	4,310303
0,183000	4,731750	4,999847
0,184000	4,836578	4,999847
0,185000	4,808807	4,999847
0,186000	4,483337	4,999847
0,187000	4,248962	4,999847
0,188000	3,973999	4,820099
0,189000	3,706360	4,712830
0,190000	3,397675	4,097900
0,191000	3,121185	3,688660
0,192000	2,772675	3,961945
0,193000	2,521667	4,999847
0,194000	2,353821	4,999847
0,195000	2,370605	4,999847
0,196000	2,753448	4,999847
0,197000	3,009033	4,999847
0,198000	3,343964	4,849396
0,199000	3,697815	3,338318
0,200000	4,005737	4,092407
0,201000	4,342499	3,286591
0,202000	4,561310	4,984436
0,203000	4,703217	4,999847
0,204000	4,832306	4,999847
0,205000	4,814911	4,999847
0,206000	4,481201	4,999847
0,207000	4,239655	4,999847
0,208000	3,977509	4,999847
0,209000	3,709259	4,761047
0,210000	3,365326	3,084412
0,211000	3,108978	4,483032
0,212000	2,771301	3,606567
0,213000	2,522888	4,999847
0,214000	2,365570	4,999847
0,215000	2,371674	4,999847
0,216000	2,752991	4,999847
0,217000	3,010101	4,999847
0,218000	3,343201	4,771729
0,219000	3,705750	2,836151
0,220000	4,056244	3,105164
0,221000	4,341125	3,689575
0,222000	4,553680	4,999847
0,223000	4,725800	4,999847
0,224000	4,835510	4,999847
0,225000	4,808044	4,999847
0,226000	4,474335	4,999847
0,227000	4,250336	4,999847
0,228000	3,970642	4,575500
0,229000	3,700256	4,285583
0,230000	3,411102	4,664917
0,231000	3,110504	2,896118
0,232000	2,769318	3,360443
0,233000	2,521210	4,999847
0,234000	2,364655	4,999847
0,235000	2,370605	4,999847
0,236000	2,740631	4,999847
0,237000	2,999268	4,999847
0,238000	3,348846	4,355164
0,239000	3,701477	3,034363
0,240000	3,988800	4,899597
0,241000	4,331970	3,609009
0,242000	4,561005	4,876251
0,243000	4,724121	4,999847
0,244000	4,832458	4,999847
0,245000	4,809113	4,999847
0,246000	4,486542	4,999847
0,247000	4,257660	4,999847
0,248000	3,983459	4,999847
0,249000	3,710785	4,622498
0,250000	3,368378	3,092499
0,251000	3,114319	4,329681
0,252000	2,775421	3,553009
0,253000	2,525330	4,999847
0,254000	2,355042	4,999847
0,255000	2,368622	4,999847
0,256000	2,747345	4,999847
0,257000	3,005676	4,999847
0,258000	3,344574	4,500732
0,259000	3,687439	3,550415
0,260000	4,046783	3,365936
0,261000	4,329987	4,064484
0,262000	4,566193	4,602966
0,263000	4,721832	4,999847
0,264000	4,837952	4,999847
0,265000	4,820099	4,999847
0,266000	4,494934	4,999847
0,267000	4,241180	4,999847
0,268000	3,977966	4,674225
0,269000	3,710937	4,524689
0,270000	3,364258	2,747955
0,271000	3,117523	4,809723
0,272000	2,789459	4,099884
0,273000	2,540741	4,999847
0,274000	2,359924	4,999847
0,275000	2,359619	4,999847
0,276000	2,743225	4,999847
0,277000	3,018341	4,999847
0,278000	3,339539	4,654083
0,279000	3,679352	3,887329
0,280000	4,008331	3,735352
0,281000	4,326782	4,082489
0,282000	4,566345	4,497528
0,283000	4,734802	4,999847
0,284000	4,835358	4,999847
0,285000	4,813080	4,999847
0,286000	4,509888	4,999847
0,287000	4,249878	4,999847
0,288000	3,989868	4,999847
0,289000	3,715210	4,689941
0,290000	3,389740	3,712006
0,291000	3,132782	3,660889
0,292000	2,780151	3,602142
0,293000	2,534027	4,999847
0,294000	2,367706	4,999847
0,295000	2,371216	4,999847
0,296000	2,742462	4,999847
0,297000	3,004303	4,999847
0,298000	3,339081	4,617310
0,299000	3,676453	4,035034
0,300000	4,055786	2,345123
0,301000	4,327850	4,087982
0,302000	4,555511	4,899750
0,303000	4,721222	4,999847
0,304000	4,823914	4,999847
0,305000	4,815979	4,999847
0,306000	4,514923	4,999847
0,307000	4,244385	4,999847
0,308000	3,988953	4,965668
0,309000	3,720398	4,803772
0,310000	3,360443	2,111664
0,311000	3,133850	4,232025
0,312000	2,782898	3,598480
0,313000	2,541504	4,999847
0,314000	2,365417	4,999847
0,315000	2,361908	4,999847
0,316000	2,727051	4,999847
0,317000	3,009949	4,999847
0,318000	3,335876	4,715271
0,319000	3,666077	4,535065
0,320000	4,045868	3,115845
0,321000	4,320526	4,386597
0,322000	4,543152	4,999847
0,323000	4,718170	4,999847
0,324000	4,834137	4,999847
0,325000	4,817963	4,999847
0,326000	4,510498	4,999847
0,327000	4,258423	4,999847
0,328000	3,992462	4,999847
0,329000	3,716431	4,479370
0,330000	3,379517	3,189545
0,331000	3,145905	4,167480
0,332000	2,791748	3,875885
0,333000	2,524261	4,999847
0,334000	2,370605	4,999847
0,335000	2,372589	4,999847
0,336000	2,725372	4,999847
0,337000	3,025208	4,999847
0,338000	3,343811	4,334717
0,339000	3,665314	4,532623
0,340000	4,012604	3,190460
0,341000	4,307709	3,829498
0,342000	4,555206	4,814911
0,343000	4,735260	4,999847
0,344000	4,832458	4,999847
0,345000	4,812164	4,999847
0,346000	4,523163	4,999847
0,347000	4,239349	4,999847
0,348000	3,999634	4,999847
0,349000	3,709564	3,953552
0,350000	3,385468	3,304596
0,351000	3,153229	4,856720
0,352000	2,792969	3,847504
0,353000	2,545013	4,999847
0,354000	2,376251	4,999847
0,355000	2,369690	4,999847
0,356000	2,729950	4,999847
0,357000	3,027649	4,999847
0,358000	3,325806	4,999847
0,359000	3,669128	4,206390
0,360000	4,014893	3,027191
0,361000	4,324341	3,525543
0,362000	4,549255	4,944611
0,363000	4,729767	4,999847
0,364000	4,826813	4,999847
0,365000	4,824982	4,999847
0,366000	4,510956	4,999847
0,367000	4,256439	4,999847
0,368000	3,995972	4,949951
0,369000	3,729248	4,872284
0,370000	3,408813	3,026581
0,371000	3,139954	3,549500
0,372000	2,796021	3,956146
0,373000	2,534332	4,999847
0,374000	2,372437	4,999847
0,375000	2,361450	4,999847
0,376000	2,731171	4,999847
0,377000	3,016815	4,999847
0,378000	3,336182	4,478912
0,379000	3,663635	4,357452
0,380000	4,039612	2,457733
0,381000	4,304047	4,999847
0,382000	4,557800	4,636688
0,383000	4,732208	4,999847
0,384000	4,826050	4,999847
0,385000	4,820251	4,999847
0,386000	4,527283	4,999847
0,387000	4,251709	4,999847
0,388000	4,007263	4,999847
0,389000	3,728027	4,646301
0,390000	3,368073	2,229309
0,391000	3,150330	4,412689
0,392000	2,790070	3,392487
0,393000	2,529755	4,999847
0,394000	2,380524	4,999847
0,395000	2,366180	4,999847
0,396000	2,729034	4,999847
0,397000	3,021240	4,999847
0,398000	3,325500	4,907837
0,399000	3,677673	3,641052
0,400000	4,031525	3,399506
0,401000	4,318390	4,281769
0,402000	4,553680	4,837952
0,403000	4,736938	4,999847
0,404000	4,824524	4,999847
0,405000	4,831696	4,999847
0,406000	4,517059	4,999847
0,407000	4,258728	4,999847
0,408000	4,015503	4,999847
0,409000	3,731842	4,735413
0,410000	3,369446	1,907349
0,411000	3,138275	4,320679
0,412000	2,808685	4,167175
0,413000	2,558441	4,999847
0,414000	2,368011	4,999847
0,415000	2,357788	4,999847
0,416000	2,725983	4,999847
0,417000	3,020477	4,999847
0,418000	3,321686	4,999847
0,419000	3,670959	3,790588
0,420000	4,042358	2,189636
0,421000	4,310455	4,690094
0,422000	4,543915	4,999847
0,423000	4,717407	4,999847
0,424000	4,825897	4,999847
0,425000	4,832764	4,999847
0,426000	4,518890	4,999847
0,427000	4,248962	4,999847
0,428000	4,011688	4,999847
0,429000	3,720703	4,133301
0,430000	3,399048	3,369751
0,431000	3,164215	4,999847
0,432000	2,789612	3,088074
0,433000	2,540894	4,999847
0,434000	2,386627	4,999847
0,435000	2,353058	4,999847
0,436000	2,724762	4,999847
0,437000	3,018646	4,999847
0,438000	3,327026	4,737701
0,439000	3,673553	3,627777
0,440000	3,981476	4,443512
0,441000	4,310455	3,409119
0,442000	4,552155	4,725342
0,443000	4,718781	4,999847
0,444000	4,831848	4,999847
0,445000	4,822083	4,999847
0,446000	4,535065	4,999847
0,447000	4,269562	4,999847
0,448000	4,013977	4,999847
0,449000	3,730164	4,451294
0,450000	3,407440	3,681946
0,451000	3,143768	4,754639
0,452000	2,794800	3,047485
0,453000	2,547150	4,999847
0,454000	2,369232	4,999847
0,455000	2,358704	4,999847
0,456000	2,704468	4,999847
0,457000	3,008881	4,999847
0,458000	3,324585	4,860687
0,459000	3,678589	3,353729
0,460000	4,020386	3,650360
0,461000	4,288788	4,999847
0,462000	4,560394	4,253845
0,463000	4,712677	4,999847
0,464000	4,834595	4,999847
0,465000	4,831543	4,999847
0,466000	4,538269	4,999847
0,467000	4,260559	4,999847
0,468000	4,019928	4,999847
0,469000	3,722992	3,946686
0,470000	3,396606	3,048248
0,471000	3,159790	4,889221
0,472000	2,799225	3,132782
0,473000	2,555084	4,999847
0,474000	2,379913	4,999847
0,475000	2,356720	4,999847
0,476000	2,709961	4,999847
0,477000	3,001709	4,999847
0,478000	3,326569	4,694366
0,479000	3,661499	4,026031
0,480000	4,001770	3,390656
0,481000	4,309998	4,290009
0,482000	4,545135	4,835358
0,483000	4,714813	4,999847
0,484000	4,828796	4,999847
0,485000	4,833374	4,999847
0,486000	4,537048	4,999847
0,487000	4,271393	4,999847
0,488000	4,019623	4,999847
0,489000	3,728790	4,170532
0,490000	3,446655	4,490356
0,491000	3,154602	3,531952
0,492000	2,798004	2,837372
0,493000	2,558136	4,999847
0,494000	2,369843	4,999847
0,495000	2,362518	4,999847
0,496000	2,719116	4,999847
0,497000	3,008423	4,999847
0,498000	3,326874	4,550171
0,499000	3,660431	3,998260
0,500000	3,993073	3,785706
0,501000	4,315033	4,152527
0,502000	4,541931	4,938507
0,503000	4,712372	4,999847
0,504000	4,834747	4,999847
0,505000	4,832306	4,999847
0,506000	4,542236	4,999847
0,507000	4,263458	4,999847
0,508000	4,021149	4,999847
0,509000	3,723602	3,718567
0,510000	3,417053	3,866882
0,511000	3,143311	4,175873
0,512000	2,802429	3,101654
0,513000	2,569122	4,999847
0,514000	2,371063	4,999847
0,515000	2,362366	4,999847
0,516000	2,712250	4,999847
0,517000	2,998352	4,999847
0,518000	3,325043	4,613647
0,519000	3,678131	3,001862
0,520000	3,972473	4,847107
0,521000	4,306183	4,109802
0,522000	4,552002	4,440460
0,523000	4,703064	4,999847
0,524000	4,838257	4,999847
0,525000	4,826508	4,999847
0,526000	4,539185	4,999847
0,527000	4,271088	4,999847
0,528000	4,021149	4,999847
0,529000	3,735657	4,130096
0,530000	3,428955	3,515167
0,531000	3,158264	3,404694
0,532000	2,818298	3,644867
0,533000	2,559357	4,999847
0,534000	2,374725	4,999847
0,535000	2,364044	4,999847
0,536000	2,702179	4,999847
0,537000	2,984619	4,999847
0,538000	3,332214	4,112091
0,539000	3,670044	3,286285
0,540000	3,984222	4,106140
0,541000	4,294891	3,357697
0,542000	4,546814	4,566040
0,543000	4,722900	4,999847
0,544000	4,842377	4,999847
0,545000	4,827423	4,999847
0,546000	4,531555	4,999847
0,547000	4,281006	4,999847
0,548000	4,019470	4,999847
0,549000	3,728485	3,861694
0,550000	3,429108	4,264374
0,551000	3,153381	3,970642
0,552000	2,819977	3,598633
0,553000	2,561798	4,999847
0,554000	2,364655	4,999847
0,555000	2,368011	4,999847
0,556000	2,695312	4,999847
0,557000	2,995300	4,999847
0,558000	3,313599	4,999847
0,559000	3,655243	4,043274
0,560000	4,026184	2,545166
0,561000	4,316711	3,902435
0,562000	4,537811	4,999847
0,563000	4,726562	4,999847
0,564000	4,843903	4,999847
0,565000	4,827728	4,999847
0,566000	4,541473	4,999847
0,567000	4,285889	4,999847
0,568000	4,008331	4,601288
0,569000	3,745270	4,526367
0,570000	3,414154	3,327942
0,571000	3,154755	3,988495
0,572000	2,802887	2,609100
0,573000	2,553558	4,999847
0,574000	2,374115	4,999847
0,575000	2,365875	4,999847
0,576000	2,707214	4,999847
0,577000	3,000793	4,999847
0,578000	3,313751	4,871216
0,579000	3,665466	3,505707
0,580000	3,971558	4,636993
0,581000	4,312744	3,548584
0,582000	4,546356	4,434967
0,583000	4,711914	4,999847
0,584000	4,840393	4,999847
0,585000	4,832001	4,999847
0,586000	4,573975	4,999847
0,587000	4,272919	4,999847
0,588000	4,017181	4,998016
0,589000	3,744965	4,358215
0,590000	3,427582	3,701630
0,591000	3,183441	4,297180
0,592000	2,829437	3,720703
0,593000	2,562103	4,999847
0,594000	2,373199	4,999847
0,595000	2,367554	4,999847
0,596000	2,694244	4,999847
0,597000	2,996826	4,999847
0,598000	3,316193	4,632568
0,599000	3,667297	3,328400
0,600000	3,993988	3,672943
0,601000	4,327087	3,114777
0,602000	4,533844	4,999847
0,603000	4,718475	4,999847
0,604000	4,839478	4,999847
0,605000	4,825287	4,999847
0,606000	4,565277	4,999847
0,607000	4,273682	4,999847
0,608000	4,014282	4,562225
0,609000	3,744507	4,277802
0,610000	3,409882	2,885742
0,611000	3,151245	3,777161
0,612000	2,835541	4,097443
0,613000	2,571411	4,999847
0,614000	2,372894	4,999847
0,615000	2,369995	4,999847
0,616000	2,688599	4,999847
0,617000	2,987671	4,999847
0,618000	3,315887	4,632263
0,619000	3,661957	3,512115
0,620000	4,005127	2,946320
0,621000	4,312439	3,770294
0,622000	4,526520	4,999847
0,623000	4,729919	4,999847
0,624000	4,841156	4,999847
0,625000	4,832611	4,999847
0,626000	4,571533	4,999847
0,627000	4,280548	4,999847
0,628000	4,014893	4,607391
0,629000	3,768005	4,999847
0,630000	3,429871	3,701172
0,631000	3,173370	4,084015
0,632000	2,840729	3,953094
0,633000	2,557220	4,999847
0,634000	2,378082	4,999847
0,635000	2,365417	4,999847
0,636000	2,673645	4,999847
0,637000	2,993469	4,999847
0,638000	3,316650	4,504852
0,639000	3,657837	3,621216
0,640000	4,029236	2,164612
0,641000	4,306335	4,202728
0,642000	4,538574	4,809570
0,643000	4,716797	4,999847
0,644000	4,831390	4,999847
0,645000	4,823608	4,999847
0,646000	4,566803	4,999847
0,647000	4,281311	4,999847
0,648000	4,021454	4,903107
0,649000	3,763580	4,999847
0,650000	3,423615	3,297577
0,651000	3,185883	4,691467
0,652000	2,826538	3,323059
0,653000	2,561493	4,999847
0,654000	2,379761	4,999847
0,655000	2,372284	4,999847
0,656000	2,679138	4,999847
0,657000	3,001099	4,999847
0,658000	3,316956	4,418030
0,659000	3,667755	3,135071
0,660000	3,980865	4,019012
0,661000	4,315491	3,206177
0,662000	4,528656	4,999847
0,663000	4,720764	4,999847
0,664000	4,833374	4,999847
0,665000	4,835663	4,999847
0,666000	4,575806	4,999847
0,667000	4,284515	4,999847
0,668000	4,032745	4,999847
0,669000	3,743896	3,986816
0,670000	3,421021	3,074799
0,671000	3,154602	3,559113
0,672000	2,829437	3,220062
0,673000	2,565002	4,999847
0,674000	2,382660	4,999847
0,675000	2,363129	4,999847
0,676000	2,679138	4,999847
0,677000	3,002777	4,999847
0,678000	3,307648	4,769592
0,679000	3,647461	4,003296
0,680000	4,001465	2,863159
0,681000	4,299927	4,082947
0,682000	4,536133	4,783020
0,683000	4,724274	4,999847
0,684000	4,829102	4,999847
0,685000	4,836121	4,999847
0,686000	4,580994	4,999847
0,687000	4,281464	4,999847
0,688000	4,037933	4,999847
0,689000	3,765106	4,921417
0,690000	3,452911	4,154053
0,691000	3,179016	3,589172
0,692000	2,817535	2,513275
0,693000	2,566223	4,999847
0,694000	2,392883	4,999847
0,695000	2,370453	4,999847
0,696000	2,670288	4,999847
0,697000	3,004608	4,999847
0,698000	3,311157	4,569244
0,699000	3,658295	3,368530
0,700000	3,988953	3,386383
0,701000	4,304657	3,092804
0,702000	4,527130	4,999847
0,703000	4,721527	4,999847
0,704000	4,835968	4,999847
0,705000	4,835663	4,999847
0,706000	4,578552	4,999847
0,707000	4,285889	4,999847
0,708000	4,037476	4,999847
0,709000	3,752747	4,267883
0,710000	3,465271	4,292145
0,711000	3,181152	3,227234
0,712000	2,829437	3,088074
0,713000	2,554932	4,541931
0,714000	2,398071	4,999847
0,715000	2,359467	4,999847
0,716000	2,672119	4,999847
0,717000	2,984314	4,999847
0,718000	3,295288	4,999847
0,719000	3,648682	3,740234
0,720000	3,988495	3,279419
0,721000	4,302979	3,665161
0,722000	4,523010	4,999847
0,723000	4,725494	4,999847
0,724000	4,828644	4,999847
0,725000	4,845428	4,999847
0,726000	4,574432	4,999847
0,727000	4,282684	4,999847
0,728000	4,034729	4,999847
0,729000	3,749237	3,927612
0,730000	3,424530	2,822418
0,731000	3,196106	4,237671
0,732000	2,837219	3,188934
0,733000	2,588501	4,999847
0,734000	2,387238	4,999847
0,735000	2,362823	4,999847
0,736000	2,666779	4,999847
0,737000	2,999268	4,999847
0,738000	3,298950	4,999847
0,739000	3,648376	3,819733
0,740000	4,005280	3,405304
0,741000	4,302979	4,301453
0,742000	4,538422	4,540863
0,743000	4,723358	4,999847
0,744000	4,832764	4,999847
0,745000	4,836578	4,999847
0,746000	4,591675	4,999847
0,747000	4,276276	4,999847
0,748000	4,039307	4,999847
0,749000	3,757477	4,123840
0,750000	3,428955	2,866364
0,751000	3,183441	4,999847
0,752000	2,842102	3,244781
0,753000	2,568817	4,999847
0,754000	2,377472	4,999847
0,755000	2,365112	4,999847
0,756000	2,670288	4,999847
0,757000	2,994080	4,999847
0,758000	3,304138	4,781494
0,759000	3,639984	4,109802
0,760000	3,961334	4,606018
0,761000	4,304047	3,509521
0,762000	4,531555	4,799652
0,763000	4,713898	4,999847
0,764000	4,846649	4,999847
0,765000	4,842834	4,999847
0,766000	4,583893	4,999847
0,767000	4,301300	4,999847
0,768000	4,042053	4,999847
0,769000	3,764648	4,420013
0,770000	3,449402	3,804474
0,771000	3,188934	4,914398
0,772000	2,862549	4,116364
0,773000	2,565460	4,750366
0,774000	2,384949	4,999847
0,775000	2,359924	4,999847
0,776000	2,669373	4,999847
0,777000	2,985840	4,999847
0,778000	3,289642	4,999847
0,779000	3,652496	3,335724
0,780000	3,977509	3,792267
0,781000	4,280548	3,854675
0,782000	4,531555	4,776611
0,783000	4,711456	4,999847
0,784000	4,840851	4,999847
0,785000	4,840393	4,999847
0,786000	4,601135	4,999847
0,787000	4,296570	4,999847
0,788000	4,040375	4,955750
0,789000	3,768616	4,479218
0,790000	3,441467	3,357086
0,791000	3,178711	4,043274
0,792000	2,859802	3,752441
0,793000	2,578888	4,999847
0,794000	2,384491	4,999847
0,795000	2,365875	4,999847
0,796000	2,664795	4,999847
0,797000	2,981720	4,999847
0,798000	3,300629	4,717102
0,799000	3,655090	3,169861
0,800000	3,974152	3,964996
0,801000	4,257507	4,477692
0,802000	4,529419	4,778748
0,803000	4,716949	4,999847
0,804000	4,835358	4,999847
0,805000	4,829254	4,999847
0,806000	4,595795	4,999847
0,807000	4,306793	4,999847
0,808000	4,045410	4,999847
0,809000	3,766785	4,228516
0,810000	3,444672	3,376007
0,811000	3,201599	4,057922
0,812000	2,846832	2,985687
0,813000	2,595367	4,999847
0,814000	2,383881	4,999847
0,815000	2,371368	4,999847
0,816000	2,662201	4,999847
0,817000	2,983093	4,999847
0,818000	3,291626	4,999847
0,819000	3,631287	4,336395
0,820000	3,962250	4,496002
0,821000	4,289246	3,418579
0,822000	4,520569	4,999847
0,823000	4,705811	4,999847
0,824000	4,850616	4,999847
0,825000	4,833679	4,999847
0,826000	4,602356	4,999847
0,827000	4,306183	4,999847
0,828000	4,047546	4,999847
0,829000	3,763275	3,971100
0,830000	3,452148	3,599854
0,831000	3,190155	3,770447
0,832000	2,856750	3,508148
0,833000	2,601624	4,999847
0,834000	2,382965	4,999847
0,835000	2,365875	4,999847
0,836000	2,648468	4,999847
0,837000	2,966919	4,999847
0,838000	3,297882	4,813385
0,839000	3,634491	4,082184
0,840000	3,957214	4,611053
0,841000	4,293823	2,942352
0,842000	4,531555	4,514313
0,843000	4,711761	4,999847
0,844000	4,843903	4,999847
0,845000	4,835815	4,999847
0,846000	4,614716	4,999847
0,847000	4,298096	4,999847
0,848000	4,035492	4,544220
0,849000	3,780823	4,828186
0,850000	3,476715	4,718018
0,851000	3,214417	4,491272
0,852000	2,870178	3,897400
0,853000	2,585907	4,999847
0,854000	2,381287	4,999847
0,855000	2,379761	4,999847
0,856000	2,661285	4,999847
0,857000	2,980652	4,999847
0,858000	3,304749	4,336395
0,859000	3,644257	3,508453
0,860000	3,963776	4,230347
0,861000	4,311218	3,096466
0,862000	4,508667	4,999847
0,863000	4,706116	4,999847
0,864000	4,846191	4,999847
0,865000	4,832306	4,999847
0,866000	4,617462	4,999847
0,867000	4,298859	4,999847
0,868000	4,041748	4,709930
0,869000	3,764343	3,831329
0,870000	3,454895	3,404388
0,871000	3,213348	4,291382
0,872000	2,865753	3,525696
0,873000	2,575531	4,640656
0,874000	2,390442	4,999847
0,875000	2,375793	4,999847
0,876000	2,653046	4,999847
0,877000	2,979279	4,999847
0,878000	3,307343	4,108429
0,879000	3,636780	3,755035
0,880000	3,979950	3,368378
0,881000	4,282837	3,198090
0,882000	4,517670	4,999847
0,883000	4,698486	4,999847
0,884000	4,840240	4,999847
0,885000	4,839630	4,999847
0,886000	4,624023	4,999847
0,887000	4,305878	4,999847
0,888000	4,059448	4,999847
0,889000	3,774109	4,163513
0,890000	3,478546	4,367523
0,891000	3,215027	3,915863
0,892000	2,870483	3,617706
0,893000	2,602997	4,999847
0,894000	2,397461	4,999847
0,895000	2,376862	4,999847
0,896000	2,645569	4,999847
0,897000	2,971954	4,999847
0,898000	3,296051	4,668884
0,899000	3,637390	3,740387
0,900000	3,999786	3,536835
0,901000	4,284668	4,931488
0,902000	4,508667	4,999847
0,903000	4,712830	4,999847
0,904000	4,843140	4,999847
0,905000	4,833984	4,999847
0,906000	4,630585	4,999847
0,907000	4,302673	4,999847
0,908000	4,058380	4,999847
0,909000	3,777771	4,361725
0,910000	3,456116	3,265686
0,911000	3,214722	4,426575
0,912000	2,881470	4,176788
0,913000	2,564392	3,996124
0,914000	2,406921	4,999847
0,915000	2,386322	4,999847
0,916000	2,638855	4,999847
0,917000	2,990112	4,999847
0,918000	3,293610	4,701996
0,919000	3,629456	4,031830
0,920000	3,965302	3,987885
0,921000	4,274902	3,941650
0,922000	4,518585	4,999847
0,923000	4,713593	4,999847
0,924000	4,844971	4,999847
0,925000	4,840393	4,999847
0,926000	4,623871	4,999847
0,927000	4,316254	4,999847
0,928000	4,053040	4,937897
0,929000	3,773346	4,054871
0,930000	3,460236	3,302765
0,931000	3,192139	4,543915
0,932000	2,875824	3,829193
0,933000	2,592010	4,999847
0,934000	2,407379	4,999847
0,935000	2,369385	4,999847
0,936000	2,632141	4,999847
0,937000	2,987366	4,999847
0,938000	3,286591	4,999847
0,939000	3,625641	4,262848
0,940000	3,995361	3,029785
0,941000	4,304047	3,774109
0,942000	4,512329	4,999847
0,943000	4,712830	4,999847
0,944000	4,844971	4,999847
0,945000	4,842987	4,999847
0,946000	4,628296	4,999847
0,947000	4,298248	4,999847
0,948000	4,051971	4,786072
0,949000	3,781891	4,322510
0,950000	3,467255	3,587799
0,951000	3,235474	4,999847
0,952000	2,872162	3,388824
0,953000	2,602997	4,999847
0,954000	2,405090	4,999847
0,955000	2,370605	4,999847
0,956000	2,637939	4,999847
0,957000	2,989960	4,999847
0,958000	3,278809	4,999847
0,959000	3,641357	3,406982
0,960000	3,993988	2,884064
0,961000	4,308472	3,266602
0,962000	4,521484	4,930878
0,963000	4,719238	4,999847
0,964000	4,839020	4,999847
0,965000	4,848480	4,999847
0,966000	4,620514	4,999847
0,967000	4,315033	4,999847
0,968000	4,074402	4,999847
0,969000	3,796844	4,999847
0,970000	3,466034	3,433533
0,971000	3,217773	4,915161
0,972000	2,900238	4,678040
0,973000	2,604218	4,999847
0,974000	2,390594	4,999847
0,975000	2,362671	4,999847
0,976000	2,637329	4,999847
0,977000	2,982788	4,999847
0,978000	3,280182	4,999847
0,979000	3,633423	3,628540
0,980000	3,987274	2,941437
0,981000	4,308319	3,237762
0,982000	4,510651	4,999847
0,983000	4,707489	4,999847
0,984000	4,845123	4,999847
0,985000	4,849854	4,999847
0,986000	4,628143	4,999847
0,987000	4,299622	4,999847
0,988000	4,062195	4,999847
0,989000	3,799591	4,999847
0,990000	3,453674	2,721252
0,991000	3,206024	4,999847
0,992000	2,882233	3,598785
0,993000	2,612000	4,999847
0,994000	2,409363	4,999847
0,995000	2,366943	4,999847
0,996000	2,639313	4,999847
0,997000	2,975006	4,999847
0,998000	3,279114	4,999847
0,999000	3,625336	4,007263

